## w(eV)      kappa(W(mK)^-1)
    0.01             204.221
    0.03             204.057
    0.05             203.731
    0.07             203.251
    0.09             202.627
    0.11              201.87
    0.13             200.996
    0.15             200.021
    0.17             198.962
    0.19             197.837
    0.21             196.665
    0.23             195.464
    0.25             194.251
    0.27              193.04
    0.29             191.847
    0.31             190.684
    0.33             189.561
    0.35             188.487
    0.37             187.469
    0.39             186.513
    0.41             185.621
    0.43             184.797
    0.45             184.041
    0.47             183.354
    0.49             182.734
    0.51             182.179
    0.53             181.689
    0.55             181.259
    0.57             180.888
    0.59             180.573
    0.61              180.31
    0.63             180.096
    0.65             179.928
    0.67             179.803
    0.69             179.719
    0.71             179.672
    0.73             179.659
    0.75             179.679
    0.77             179.728
    0.79             179.804
    0.81             179.905
    0.83             180.029
    0.85             180.173
    0.87             180.337
    0.89             180.518
    0.91             180.715
    0.93             180.925
    0.95             181.148
    0.97             181.382
    0.99             181.625
    1.01             181.876
    1.03             182.135
    1.05             182.399
    1.07             182.667
    1.09             182.939
    1.11             183.212
    1.13             183.487
    1.15             183.761
    1.17             184.034
    1.19             184.305
    1.21             184.572
    1.23             184.834
    1.25             185.091
    1.27             185.341
    1.29             185.583
    1.31             185.816
    1.33             186.039
    1.35             186.251
    1.37             186.451
    1.39             186.638
    1.41             186.811
    1.43             186.968
    1.45             187.109
    1.47             187.232
    1.49             187.337
    1.51             187.422
    1.53             187.486
    1.55             187.529
    1.57             187.549
    1.59             187.545
    1.61             187.516
    1.63             187.462
    1.65              187.38
    1.67             187.271
    1.69             187.133
    1.71             186.965
    1.73             186.766
    1.75             186.536
    1.77             186.274
    1.79             185.979
    1.81              185.65
    1.83             185.286
    1.85             184.887
    1.87             184.452
    1.89              183.98
    1.91             183.471
    1.93             182.925
    1.95             182.342
    1.97             181.719
    1.99             181.059
    2.01              180.36
    2.03             179.621
    2.05             178.844
    2.07             178.028
    2.09             177.173
    2.11              176.28
    2.13             175.347
    2.15             174.377
    2.17             173.369
    2.19             172.323
    2.21              171.24
    2.23             170.121
    2.25             168.966
    2.27             167.776
    2.29             166.552
    2.31             165.294
    2.33             164.004
    2.35             162.682
    2.37              161.33
    2.39             159.949
    2.41             158.539
    2.43             157.102
    2.45             155.638
    2.47             154.151
    2.49              152.64
    2.51             151.106
    2.53             149.552
    2.55             147.979
    2.57             146.387
    2.59             144.779
    2.61             143.156
    2.63             141.519
    2.65             139.869
    2.67             138.209
    2.69             136.538
    2.71              134.86
    2.73             133.175
    2.75             131.484
    2.77             129.789
    2.79             128.092
    2.81             126.392
    2.83             124.693
    2.85             122.994
    2.87             121.298
    2.89             119.605
    2.91             117.916
    2.93             116.233
    2.95             114.556
    2.97             112.887
    2.99             111.226
    3.01             109.575
    3.03             107.934
    3.05             106.304
    3.07             104.686
    3.09             103.081
    3.11              101.49
    3.13             99.9119
    3.15             98.3489
    3.17             96.8012
    3.19             95.2693
    3.21             93.7537
    3.23             92.2548
    3.25             90.7731
    3.27              89.309
    3.29             87.8628
    3.31             86.4348
    3.33             85.0253
    3.35             83.6346
    3.37             82.2629
    3.39             80.9103
    3.41              79.577
    3.43             78.2631
    3.45             76.9688
    3.47              75.694
    3.49              74.439
    3.51             73.2036
    3.53             71.9879
    3.55              70.792
    3.57             69.6156
    3.59             68.4589
    3.61             67.3217
    3.63             66.2039
    3.65             65.1055
    3.67             64.0264
    3.69             62.9664
    3.71             61.9253
    3.73             60.9031
    3.75             59.8996
    3.77             58.9145
    3.79             57.9479
    3.81             56.9993
    3.83             56.0688
    3.85              55.156
    3.87             54.2608
    3.89              53.383
    3.91             52.5223
    3.93             51.6787
    3.95             50.8517
    3.97             50.0413
    3.99             49.2472
    4.01             48.4692
    4.03              47.707
    4.05             46.9605
    4.07             46.2295
    4.09             45.5136
    4.11             44.8127
    4.13             44.1267
    4.15             43.4551
    4.17             42.7979
    4.19             42.1549
    4.21             41.5257
    4.23             40.9103
    4.25             40.3084
    4.27             39.7197
    4.29             39.1442
    4.31             38.5815
    4.33             38.0316
    4.35             37.4942
    4.37             36.9691
    4.39             36.4561
    4.41             35.9551
    4.43             35.4659
    4.45             34.9884
    4.47             34.5222
    4.49             34.0674
    4.51             33.6237
    4.53              33.191
    4.55             32.7691
    4.57             32.3578
    4.59             31.9571
    4.61             31.5669
    4.63             31.1869
    4.65              30.817
    4.67             30.4572
    4.69             30.1073
    4.71             29.7671
    4.73             29.4367
    4.75             29.1159
    4.77             28.8046
    4.79             28.5027
    4.81             28.2101
    4.83             27.9268
    4.85             27.6526
    4.87             27.3876
    4.89             27.1316
    4.91             26.8845
    4.93             26.6464
    4.95             26.4172
    4.97             26.1969
    4.99             25.9853
    5.01             25.7825
    5.03             25.5885
    5.05             25.4032
    5.07             25.2267
    5.09             25.0588
    5.11             24.8997
    5.13             24.7493
    5.15             24.6076
    5.17             24.4746
    5.19             24.3504
    5.21              24.235
    5.23             24.1283
    5.25             24.0305
    5.27             23.9416
    5.29             23.8616
    5.31             23.7905
    5.33             23.7284
    5.35             23.6753
    5.37             23.6314
    5.39             23.5965
    5.41             23.5708
    5.43             23.5543
    5.45             23.5471
    5.47             23.5492
    5.49             23.5605
    5.51             23.5812
    5.53             23.6113
    5.55             23.6506
    5.57             23.6993
    5.59             23.7572
    5.61             23.8244
    5.63             23.9007
    5.65              23.986
    5.67             24.0802
    5.69             24.1831
    5.71             24.2945
    5.73             24.4141
    5.75             24.5415
    5.77             24.6765
    5.79             24.8185
    5.81             24.9671
    5.83             25.1217
    5.85             25.2816
    5.87             25.4461
    5.89             25.6143
    5.91             25.7853
    5.93             25.9581
    5.95             26.1316
    5.97             26.3046
    5.99             26.4756
    6.01             26.6434
    6.03             26.8064
    6.05              26.963
    6.07             27.1115
    6.09             27.2503
    6.11             27.3775
    6.13             27.4914
    6.15             27.5901
    6.17              27.672
    6.19             27.7352
    6.21             27.7781
    6.23             27.7992
    6.25              27.797
    6.27             27.7703
    6.29             27.7181
    6.31             27.6395
    6.33             27.5338
    6.35             27.4008
    6.37             27.2403
    6.39             27.0524
    6.41             26.8377
    6.43             26.5967
    6.45             26.3304
    6.47               26.04
    6.49             25.7267
    6.51             25.3922
    6.53             25.0382
    6.55             24.6663
    6.57             24.2785
    6.59             23.8768
    6.61             23.4631
    6.63             23.0393
    6.65             22.6074
    6.67             22.1693
    6.69             21.7266
    6.71             21.2813
    6.73             20.8348
    6.75             20.3886
    6.77             19.9442
    6.79             19.5027
    6.81             19.0653
    6.83              18.633
    6.85             18.2067
    6.87             17.7871
    6.89              17.375
    6.91             16.9708
    6.93              16.575
    6.95             16.1881
    6.97             15.8102
    6.99             15.4417
    7.01             15.0826
    7.03              14.733
    7.05              14.393
    7.07             14.0626
    7.09             13.7418
    7.11             13.4304
    7.13             13.1283
    7.15             12.8354
    7.17             12.5515
    7.19             12.2765
    7.21             12.0102
    7.23             11.7524
    7.25             11.5028
    7.27             11.2612
    7.29             11.0275
    7.31             10.8014
    7.33             10.5827
    7.35             10.3712
    7.37             10.1666
    7.39             9.96877
    7.41             9.77746
    7.43             9.59247
    7.45              9.4136
    7.47             9.24065
    7.49             9.07344
    7.51             8.91176
    7.53             8.75546
    7.55             8.60434
    7.57             8.45825
    7.59             8.31701
    7.61             8.18048
    7.63             8.04851
    7.65             7.92096
    7.67             7.79767
    7.69             7.67854
    7.71             7.56342
    7.73             7.45221
    7.75             7.34478
    7.77             7.24104
    7.79             7.14087
    7.81             7.04419
    7.83             6.95089
    7.85              6.8609
    7.87             6.77413
    7.89              6.6905
    7.91             6.60996
    7.93             6.53242
    7.95             6.45783
    7.97             6.38612
    7.99             6.31726
    8.01             6.25119
    8.03             6.18787
    8.05             6.12726
    8.07             6.06933
    8.09             6.01405
    8.11             5.96138
    8.13             5.91133
    8.15             5.86386
    8.17             5.81896
    8.19             5.77664
    8.21             5.73688
    8.23              5.6997
    8.25             5.66509
    8.27             5.63308
    8.29             5.60368
    8.31              5.5769
    8.33             5.55278
    8.35             5.53135
    8.37             5.51265
    8.39             5.49671
    8.41             5.48358
    8.43             5.47332
    8.45             5.46597
    8.47              5.4616
    8.49             5.46027
    8.51             5.46205
    8.53               5.467
    8.55              5.4752
    8.57             5.48672
    8.59             5.50164
    8.61             5.52002
    8.63             5.54194
    8.65             5.56745
    8.67             5.59663
    8.69             5.62951
    8.71             5.66614
    8.73             5.70651
    8.75             5.75064
    8.77              5.7985
    8.79             5.85001
    8.81             5.90507
    8.83             5.96354
    8.85             6.02522
    8.87             6.08984
    8.89             6.15708
    8.91             6.22654
    8.93             6.29772
    8.95             6.37006
    8.97             6.44289
    8.99             6.51546
    9.01             6.58692
    9.03             6.65634
    9.05             6.72273
    9.07             6.78502
    9.09             6.84211
    9.11             6.89291
    9.13              6.9363
    9.15             6.97126
    9.17              6.9968
    9.19             7.01209
    9.21             7.01642
    9.23             7.00925
    9.25             6.99024
    9.27             6.95927
    9.29              6.9164
    9.31             6.86194
    9.33             6.79635
    9.35             6.72031
    9.37             6.63464
    9.39             6.54026
    9.41             6.43821
    9.43             6.32959
    9.45              6.2155
    9.47             6.09705
    9.49             5.97534
    9.51             5.85138
    9.53             5.72614
    9.55             5.60049
    9.57             5.47522
    9.59             5.35102
    9.61             5.22848
    9.63             5.10812
    9.65             4.99035
    9.67              4.8755
    9.69             4.76382
    9.71             4.65552
    9.73             4.55073
    9.75             4.44952
    9.77             4.35193
    9.79             4.25798
    9.81             4.16763
    9.83             4.08082
    9.85             3.99749
    9.87             3.91754
    9.89             3.84089
    9.91             3.76741
    9.93               3.697
    9.95             3.62955
    9.97             3.56492
    9.99             3.50301
   10.01              3.4437
   10.03             3.38687
   10.05             3.33241
   10.07              3.2802
   10.09             3.23015
   10.11             3.18216
   10.13             3.13612
   10.15             3.09193
   10.17             3.04953
   10.19             3.00881
   10.21             2.96969
   10.23             2.93211
   10.25             2.89598
   10.27             2.86123
   10.29             2.82782
   10.31             2.79566
   10.33              2.7647
   10.35             2.73489
   10.37             2.70617
   10.39             2.67849
   10.41             2.65181
   10.43             2.62609
   10.45             2.60127
   10.47             2.57733
   10.49             2.55422
   10.51              2.5319
   10.53             2.51036
   10.55             2.48954
   10.57             2.46943
   10.59             2.44999
   10.61             2.43121
   10.63             2.41304
   10.65             2.39547
   10.67             2.37848
   10.69             2.36204
   10.71             2.34614
   10.73             2.33075
   10.75             2.31585
   10.77             2.30144
   10.79             2.28748
   10.81             2.27397
   10.83             2.26089
   10.85             2.24823
   10.87             2.23597
   10.89             2.22411
   10.91             2.21261
   10.93             2.20149
   10.95             2.19072
   10.97             2.18029
   10.99              2.1702
   11.01             2.16044
   11.03             2.15098
   11.05             2.14184
   11.07             2.13299
   11.09             2.12443
   11.11             2.11616
   11.13             2.10816
   11.15             2.10043
   11.17             2.09296
   11.19             2.08575
   11.21             2.07878
   11.23             2.07206
   11.25             2.06557
   11.27             2.05932
   11.29             2.05329
   11.31             2.04749
   11.33              2.0419
   11.35             2.03653
   11.37             2.03137
   11.39              2.0264
   11.41             2.02164
   11.43             2.01708
   11.45             2.01271
   11.47             2.00853
   11.49             2.00453
   11.51             2.00072
   11.53             1.99708
   11.55             1.99363
   11.57             1.99034
   11.59             1.98723
   11.61             1.98428
   11.63              1.9815
   11.65             1.97888
   11.67             1.97643
   11.69             1.97413
   11.71             1.97199
   11.73                1.97
   11.75             1.96816
   11.77             1.96647
   11.79             1.96493
   11.81             1.96354
   11.83             1.96229
   11.85             1.96119
   11.87             1.96022
   11.89             1.95939
   11.91             1.95871
   11.93             1.95815
   11.95             1.95774
   11.97             1.95745
   11.99              1.9573
   12.01             1.95728
   12.03             1.95739
   12.05             1.95763
   12.07             1.95799
   12.09             1.95848
   12.11              1.9591
   12.13             1.95984
   12.15              1.9607
   12.17             1.96169
   12.19              1.9628
   12.21             1.96402
   12.23             1.96537
   12.25             1.96683
   12.27             1.96842
   12.29             1.97012
   12.31             1.97193
   12.33             1.97386
   12.35             1.97591
   12.37             1.97807
   12.39             1.98034
   12.41             1.98272
   12.43             1.98522
   12.45             1.98783
   12.47             1.99055
   12.49             1.99338
   12.51             1.99631
   12.53             1.99936
   12.55             2.00252
   12.57             2.00578
   12.59             2.00915
   12.61             2.01263
   12.63             2.01621
   12.65              2.0199
   12.67             2.02369
   12.69             2.02759
   12.71             2.03159
   12.73              2.0357
   12.75             2.03991
   12.77             2.04422
   12.79             2.04864
   12.81             2.05315
   12.83             2.05777
   12.85             2.06249
   12.87             2.06731
   12.89             2.07222
   12.91             2.07724
   12.93             2.08236
   12.95             2.08757
   12.97             2.09288
   12.99             2.09829
   13.01              2.1038
   13.03              2.1094
   13.05              2.1151
   13.07              2.1209
   13.09             2.12679
   13.11             2.13277
   13.13             2.13884
   13.15             2.14501
   13.17             2.15128
   13.19             2.15763
   13.21             2.16408
   13.23             2.17061
   13.25             2.17724
   13.27             2.18395
   13.29             2.19076
   13.31             2.19765
   13.33             2.20463
   13.35             2.21169
   13.37             2.21884
   13.39             2.22608
   13.41              2.2334
   13.43              2.2408
   13.45             2.24829
   13.47             2.25585
   13.49              2.2635
   13.51             2.27123
   13.53             2.27903
   13.55             2.28691
   13.57             2.29487
   13.59             2.30291
   13.61             2.31101
   13.63              2.3192
   13.65             2.32745
   13.67             2.33577
   13.69             2.34416
   13.71             2.35263
   13.73             2.36115
   13.75             2.36975
   13.77              2.3784
   13.79             2.38712
   13.81              2.3959
   13.83             2.40474
   13.85             2.41364
   13.87             2.42259
   13.89             2.43159
   13.91             2.44065
   13.93             2.44976
   13.95             2.45892
   13.97             2.46812
   13.99             2.47737
   14.01             2.48666
   14.03               2.496
   14.05             2.50537
   14.07             2.51477
   14.09             2.52421
   14.11             2.53369
   14.13             2.54319
   14.15             2.55271
   14.17             2.56227
   14.19             2.57184
   14.21             2.58143
   14.23             2.59104
   14.25             2.60066
   14.27              2.6103
   14.29             2.61994
   14.31             2.62958
   14.33             2.63923
   14.35             2.64887
   14.37             2.65851
   14.39             2.66815
   14.41             2.67777
   14.43             2.68738
   14.45             2.69697
   14.47             2.70654
   14.49             2.71608
   14.51              2.7256
   14.53             2.73508
   14.55             2.74453
   14.57             2.75394
   14.59              2.7633
   14.61             2.77262
   14.63             2.78189
   14.65              2.7911
   14.67             2.80025
   14.69             2.80934
   14.71             2.81836
   14.73             2.82731
   14.75             2.83618
   14.77             2.84497
   14.79             2.85368
   14.81              2.8623
   14.83             2.87082
   14.85             2.87925
   14.87             2.88758
   14.89              2.8958
   14.91              2.9039
   14.93             2.91189
   14.95             2.91976
   14.97             2.92751
   14.99             2.93512
   15.01              2.9426
   15.03             2.94995
   15.05             2.95714
   15.07             2.96419
   15.09             2.97109
   15.11             2.97783
   15.13             2.98441
   15.15             2.99082
   15.17             2.99706
   15.19             3.00313
   15.21             3.00901
   15.23             3.01471
   15.25             3.02022
   15.27             3.02554
   15.29             3.03066
   15.31             3.03558
   15.33             3.04029
   15.35              3.0448
   15.37             3.04909
   15.39             3.05316
   15.41             3.05701
   15.43             3.06063
   15.45             3.06403
   15.47             3.06719
   15.49             3.07012
   15.51              3.0728
   15.53             3.07525
   15.55             3.07745
   15.57              3.0794
   15.59              3.0811
   15.61             3.08254
   15.63             3.08373
   15.65             3.08465
   15.67             3.08532
   15.69             3.08572
   15.71             3.08586
   15.73             3.08573
   15.75             3.08533
   15.77             3.08465
   15.79             3.08371
   15.81             3.08249
   15.83               3.081
   15.85             3.07923
   15.87             3.07718
   15.89             3.07486
   15.91             3.07226
   15.93             3.06939
   15.95             3.06624
   15.97             3.06281
   15.99              3.0591
   16.01             3.05512
   16.03             3.05086
   16.05             3.04633
   16.07             3.04152
   16.09             3.03645
   16.11              3.0311
   16.13             3.02549
   16.15              3.0196
   16.17             3.01346
   16.19             3.00705
   16.21             3.00038
   16.23             2.99345
   16.25             2.98627
   16.27             2.97884
   16.29             2.97115
   16.31             2.96322
   16.33             2.95505
   16.35             2.94664
   16.37               2.938
   16.39             2.92912
   16.41             2.92002
   16.43              2.9107
   16.45             2.90115
   16.47             2.89139
   16.49             2.88142
   16.51             2.87125
   16.53             2.86087
   16.55              2.8503
   16.57             2.83953
   16.59             2.82858
   16.61             2.81744
   16.63             2.80613
   16.65             2.79465
   16.67             2.78299
   16.69             2.77117
   16.71             2.75919
   16.73             2.74705
   16.75             2.73477
   16.77             2.72233
   16.79             2.70975
   16.81             2.69702
   16.83             2.68416
   16.85             2.67117
   16.87             2.65804
   16.89             2.64478
   16.91              2.6314
   16.93             2.61789
   16.95             2.60426
   16.97             2.59052
   16.99             2.57666
   17.01             2.56269
   17.03             2.54862
   17.05             2.53444
   17.07             2.52017
   17.09              2.5058
   17.11             2.49134
   17.13              2.4768
   17.15             2.46218
   17.17             2.44749
   17.19             2.43273
   17.21              2.4179
   17.23             2.40302
   17.25             2.38809
   17.27             2.37312
   17.29              2.3581
   17.31             2.34305
   17.33             2.32797
   17.35             2.31286
   17.37             2.29774
   17.39              2.2826
   17.41             2.26745
   17.43             2.25229
   17.45             2.23714
   17.47             2.22198
   17.49             2.20683
   17.51              2.1917
   17.53             2.17657
   17.55             2.16147
   17.57             2.14638
   17.59             2.13132
   17.61             2.11628
   17.63             2.10128
   17.65             2.08631
   17.67             2.07137
   17.69             2.05648
   17.71             2.04162
   17.73             2.02681
   17.75             2.01204
   17.77             1.99733
   17.79             1.98266
   17.81             1.96805
   17.83             1.95349
   17.85             1.93899
   17.87             1.92454
   17.89             1.91016
   17.91             1.89584
   17.93             1.88158
   17.95             1.86739
   17.97             1.85327
   17.99             1.83921
   18.01             1.82523
   18.03             1.81132
   18.05             1.79747
   18.07             1.78371
   18.09             1.77002
   18.11              1.7564
   18.13             1.74286
   18.15              1.7294
   18.17             1.71602
   18.19             1.70271
   18.21             1.68949
   18.23             1.67635
   18.25              1.6633
   18.27             1.65032
   18.29             1.63743
   18.31             1.62462
   18.33              1.6119
   18.35             1.59926
   18.37             1.58671
   18.39             1.57424
   18.41             1.56186
   18.43             1.54957
   18.45             1.53736
   18.47             1.52524
   18.49              1.5132
   18.51             1.50126
   18.53              1.4894
   18.55             1.47763
   18.57             1.46595
   18.59             1.45435
   18.61             1.44284
   18.63             1.43143
   18.65             1.42009
   18.67             1.40885
   18.69             1.39769
   18.71             1.38662
   18.73             1.37564
   18.75             1.36475
   18.77             1.35394
   18.79             1.34322
   18.81             1.33258
   18.83             1.32204
   18.85             1.31157
   18.87              1.3012
   18.89             1.29091
   18.91              1.2807
   18.93             1.27058
   18.95             1.26054
   18.97             1.25059
   18.99             1.24072
   19.01             1.23094
   19.03             1.22123
   19.05             1.21161
   19.07             1.20208
   19.09             1.19262
   19.11             1.18324
   19.13             1.17395
   19.15             1.16474
   19.17              1.1556
   19.19             1.14655
   19.21             1.13757
   19.23             1.12867
   19.25             1.11985
   19.27             1.11111
   19.29             1.10244
   19.31             1.09385
   19.33             1.08534
   19.35              1.0769
   19.37             1.06854
   19.39             1.06025
   19.41             1.05203
   19.43             1.04389
   19.45             1.03582
   19.47             1.02782
   19.49             1.01989
   19.51             1.01204
   19.53             1.00425
   19.55            0.996536
   19.57             0.98889
   19.59            0.981312
   19.61            0.973803
   19.63            0.966361
   19.65            0.958986
   19.67            0.951678
   19.69            0.944436
   19.71            0.937259
   19.73            0.930148
   19.75              0.9231
   19.77            0.916116
   19.79            0.909196
   19.81            0.902338
   19.83            0.895542
   19.85            0.888808
   19.87            0.882134
   19.89            0.875522
   19.91            0.868969
   19.93            0.862475
   19.95            0.856041
   19.97            0.849665
   19.99            0.843346
   20.01            0.837085
