## w(eV)      kappa(W(mK)^-1)
    0.01               24647
    0.03             24656.1
    0.05             24674.3
    0.07             24701.6
    0.09             24738.1
    0.11             24783.8
    0.13             24838.6
    0.15             24902.8
    0.17             24976.3
    0.19             25059.3
    0.21             25151.7
    0.23             25253.6
    0.25             25365.2
    0.27             25486.4
    0.29             25617.4
    0.31             25758.2
    0.33             25908.8
    0.35             26069.3
    0.37             26239.7
    0.39             26419.9
    0.41               26610
    0.43             26809.7
    0.45               27019
    0.47             27237.6
    0.49             27465.2
    0.51             27701.6
    0.53             27946.2
    0.55             28198.5
    0.57             28457.8
    0.59             28723.3
    0.61             28994.1
    0.63               29269
    0.65             29546.8
    0.67               29826
    0.69             30105.1
    0.71             30382.2
    0.73             30655.4
    0.75             30922.7
    0.77             31181.8
    0.79             31430.6
    0.81             31666.7
    0.83             31887.9
    0.85             32092.2
    0.87             32277.5
    0.89             32442.3
    0.91             32585.3
    0.93             32705.6
    0.95             32802.9
    0.97             32877.5
    0.99             32930.2
    1.01             32962.4
    1.03             32976.1
    1.05               32974
    1.07               32959
    1.09             32934.4
    1.11             32904.1
    1.13             32871.7
    1.15             32841.1
    1.17             32816.2
    1.19             32800.5
    1.21             32797.5
    1.23             32810.1
    1.25             32841.2
    1.27             32892.9
    1.29             32967.1
    1.31             33065.3
    1.33             33188.3
    1.35             33336.6
    1.37             33510.4
    1.39             33709.2
    1.41             33932.3
    1.43             34178.4
    1.45             34445.8
    1.47             34732.4
    1.49             35035.8
    1.51             35353.1
    1.53             35680.9
    1.55             36015.4
    1.57             36352.6
    1.59             36687.9
    1.61             37016.4
    1.63               37333
    1.65             37632.4
    1.67             37908.8
    1.69             38156.7
    1.71             38370.5
    1.73             38544.7
    1.75             38674.2
    1.77             38754.1
    1.79             38780.4
    1.81             38749.6
    1.83               38659
    1.85               38507
    1.87             38292.8
    1.89             38016.7
    1.91             37680.1
    1.93             37285.3
    1.95             36835.4
    1.97             36334.5
    1.99             35787.3
    2.01               35199
    2.03             34575.1
    2.05             33921.6
    2.07             33244.1
    2.09             32548.6
    2.11             31840.5
    2.13             31125.1
    2.15             30407.3
    2.17             29691.6
    2.19               28982
    2.21             28281.9
    2.23             27594.5
    2.25             26922.2
    2.27             26267.2
    2.29             25631.2
    2.31             25015.4
    2.33             24420.8
    2.35             23848.2
    2.37             23297.7
    2.39             22769.7
    2.41               22264
    2.43             21780.4
    2.45             21318.6
    2.47             20878.2
    2.49             20458.5
    2.51               20059
    2.53               19679
    2.55             19317.9
    2.57             18974.9
    2.59             18649.4
    2.61             18340.8
    2.63             18048.2
    2.65               17771
    2.67             17508.7
    2.69             17260.4
    2.71             17025.8
    2.73               16804
    2.75             16594.7
    2.77             16397.2
    2.79             16210.9
    2.81             16035.5
    2.83             15870.4
    2.85             15715.1
    2.87             15569.2
    2.89             15432.2
    2.91             15303.9
    2.93             15183.7
    2.95             15071.3
    2.97             14966.4
    2.99             14868.6
    3.01             14777.6
    3.03             14693.1
    3.05             14614.8
    3.07             14542.4
    3.09             14475.7
    3.11             14414.4
    3.13             14358.4
    3.15             14307.3
    3.17               14261
    3.19             14219.3
    3.21             14181.9
    3.23             14148.8
    3.25             14119.7
    3.27             14094.5
    3.29             14073.1
    3.31             14055.2
    3.33             14040.8
    3.35             14029.8
    3.37             14021.9
    3.39             14017.2
    3.41             14015.5
    3.43             14016.7
    3.45             14020.6
    3.47             14027.3
    3.49             14036.7
    3.51             14048.5
    3.53             14062.9
    3.55             14079.6
    3.57             14098.7
    3.59             14120.1
    3.61             14143.6
    3.63             14169.3
    3.65             14197.1
    3.67             14226.9
    3.69             14258.8
    3.71             14292.5
    3.73             14328.2
    3.75             14365.7
    3.77               14405
    3.79             14446.1
    3.81               14489
    3.83             14533.5
    3.85             14579.8
    3.87             14627.7
    3.89             14677.1
    3.91             14728.2
    3.93             14780.9
    3.95               14835
    3.97             14890.7
    3.99             14947.9
    4.01             15006.5
    4.03             15066.6
    4.05             15128.1
    4.07               15191
    4.09             15255.2
    4.11             15320.9
    4.13             15387.9
    4.15             15456.2
    4.17             15525.9
    4.19             15596.8
    4.21               15669
    4.23             15742.5
    4.25             15817.3
    4.27             15893.3
    4.29             15970.5
    4.31               16049
    4.33             16128.7
    4.35             16209.5
    4.37             16291.6
    4.39             16374.8
    4.41             16459.1
    4.43             16544.6
    4.45             16631.3
    4.47               16719
    4.49             16807.9
    4.51             16897.9
    4.53               16989
    4.55             17081.1
    4.57             17174.3
    4.59             17268.6
    4.61             17363.9
    4.63             17460.2
    4.65             17557.6
    4.67               17656
    4.69             17755.3
    4.71             17855.7
    4.73               17957
    4.75             18059.3
    4.77             18162.5
    4.79             18266.7
    4.81             18371.8
    4.83             18477.8
    4.85             18584.7
    4.87             18692.5
    4.89             18801.1
    4.91             18910.7
    4.93               19021
    4.95             19132.2
    4.97             19244.3
    4.99             19357.1
    5.01             19470.7
    5.03             19585.1
    5.05             19700.3
    5.07             19816.2
    5.09             19932.9
    5.11             20050.2
    5.13             20168.3
    5.15             20287.1
    5.17             20406.6
    5.19             20526.8
    5.21             20647.7
    5.23             20769.2
    5.25             20891.3
    5.27             21014.1
    5.29             21137.5
    5.31             21261.5
    5.33             21386.2
    5.35             21511.4
    5.37             21637.3
    5.39             21763.7
    5.41             21890.8
    5.43             22018.4
    5.45             22146.7
    5.47             22275.6
    5.49               22405
    5.51             22535.1
    5.53             22665.9
    5.55             22797.2
    5.57             22929.3
    5.59               23062
    5.61             23195.4
    5.63             23329.5
    5.65             23464.4
    5.67             23600.1
    5.69             23736.6
    5.71             23873.9
    5.73             24012.2
    5.75             24151.5
    5.77             24291.8
    5.79             24433.2
    5.81             24575.7
    5.83             24719.5
    5.85             24864.6
    5.87             25011.2
    5.89             25159.2
    5.91             25308.8
    5.93             25460.2
    5.95             25613.4
    5.97             25768.6
    5.99             25925.9
    6.01             26085.5
    6.03             26247.5
    6.05               26412
    6.07             26579.3
    6.09             26749.6
    6.11             26922.9
    6.13             27099.6
    6.15             27279.9
    6.17             27463.9
    6.19             27651.8
    6.21               27844
    6.23             28040.6
    6.25             28241.9
    6.27             28448.1
    6.29             28659.5
    6.31             28876.2
    6.33             29098.6
    6.35             29326.7
    6.37             29560.9
    6.39             29801.2
    6.41             30047.9
    6.43             30300.9
    6.45             30560.4
    6.47             30826.4
    6.49             31098.7
    6.51             31377.2
    6.53             31661.7
    6.55             31951.8
    6.57             32246.8
    6.59             32546.2
    6.61             32849.2
    6.63             33154.6
    6.65             33461.2
    6.67             33767.5
    6.69             34071.7
    6.71             34371.8
    6.73             34665.4
    6.75             34949.9
    6.77             35222.5
    6.79             35479.8
    6.81             35718.5
    6.83             35934.9
    6.85             36125.2
    6.87             36285.5
    6.89               36412
    6.91             36500.8
    6.93             36548.6
    6.95               36552
    6.97             36508.5
    6.99             36415.9
    7.01             36272.9
    7.03             36078.9
    7.05             35834.1
    7.07             35539.7
    7.09             35197.7
    7.11             34810.7
    7.13             34382.4
    7.15             33916.9
    7.17             33418.8
    7.19             32892.9
    7.21             32344.5
    7.23             31778.7
    7.25             31200.5
    7.27               30615
    7.29             30026.6
    7.31             29439.6
    7.33             28857.8
    7.35             28284.7
    7.37               27723
    7.39             27175.4
    7.41             26643.9
    7.43               26130
    7.45             25635.3
    7.47             25160.4
    7.49             24706.2
    7.51               24273
    7.53               23861
    7.55             23470.1
    7.57               23100
    7.59             22750.5
    7.61               22421
    7.63             22110.8
    7.65             21819.3
    7.67             21545.6
    7.69             21288.8
    7.71             21047.9
    7.73             20821.8
    7.75             20609.3
    7.77             20409.1
    7.79             20219.9
    7.81             20040.2
    7.83             19868.4
    7.85             19703.1
    7.87             19542.4
    7.89             19384.6
    7.91             19227.9
    7.93             19070.7
    7.95               18911
    7.97             18747.3
    7.99             18577.8
    8.01             18401.3
    8.03             18216.4
    8.05             18022.1
    8.07             17817.6
    8.09             17602.4
    8.11             17376.5
    8.13             17139.9
    8.15               16893
    8.17             16636.7
    8.19             16371.7
    8.21             16099.2
    8.23             15820.6
    8.25             15537.2
    8.27             15250.4
    8.29             14961.6
    8.31             14672.4
    8.33             14383.8
    8.35             14097.3
    8.37             13813.9
    8.39             13534.5
    8.41               13260
    8.43             12991.1
    8.45             12728.3
    8.47             12472.2
    8.49             12222.9
    8.51             11980.8
    8.53               11746
    8.55             11518.5
    8.57             11298.3
    8.59             11085.4
    8.61             10879.6
    8.63             10680.8
    8.65             10488.7
    8.67             10303.3
    8.69             10124.2
    8.71             9951.17
    8.73             9784.05
    8.75             9622.53
    8.77             9466.37
    8.79             9315.32
    8.81             9169.11
    8.83              9027.5
    8.85             8890.25
    8.87             8757.12
    8.89             8627.87
    8.91             8502.28
    8.93             8380.13
    8.95             8261.21
    8.97             8145.32
    8.99             8032.27
    9.01             7921.86
    9.03             7813.92
    9.05             7708.29
    9.07              7604.8
    9.09             7503.31
    9.11             7403.67
    9.13             7305.77
    9.15             7209.47
    9.17             7114.67
    9.19             7021.28
    9.21              6929.2
    9.23             6838.37
    9.25             6748.72
    9.27             6660.19
    9.29             6572.75
    9.31             6486.36
    9.33             6401.01
    9.35             6316.68
    9.37             6233.37
    9.39             6151.08
    9.41             6069.84
    9.43             5989.66
    9.45             5910.58
    9.47             5832.62
    9.49             5755.83
    9.51             5680.24
    9.53             5605.91
    9.55             5532.86
    9.57             5461.16
    9.59             5390.85
    9.61             5321.97
    9.63             5254.58
    9.65             5188.71
    9.67              5124.4
    9.69             5061.71
    9.71             5000.65
    9.73             4941.28
    9.75             4883.63
    9.77             4827.72
    9.79             4773.58
    9.81             4721.25
    9.83             4670.74
    9.85             4622.08
    9.87             4575.29
    9.89             4530.39
    9.91              4487.4
    9.93             4446.33
    9.95              4407.2
    9.97             4370.03
    9.99             4334.81
   10.01             4301.58
   10.03             4270.33
   10.05             4241.07
   10.07              4213.8
   10.09             4188.51
   10.11             4165.22
   10.13             4143.89
   10.15              4124.5
   10.17             4107.04
   10.19             4091.45
   10.21             4077.68
   10.23             4065.66
   10.25             4055.31
   10.27              4046.5
   10.29              4039.1
   10.31             4032.96
   10.33             4027.89
   10.35             4023.67
   10.37             4020.04
   10.39             4016.72
   10.41             4013.41
   10.43             4009.74
   10.45             4005.37
   10.47             3999.91
   10.49             3992.95
   10.51              3984.1
   10.53             3972.98
   10.55             3959.22
   10.57             3942.51
   10.59             3922.55
   10.61             3899.14
   10.63             3872.14
   10.65             3841.47
   10.67             3807.14
   10.69             3769.24
   10.71             3727.94
   10.73             3683.47
   10.75             3636.12
   10.77              3586.2
   10.79             3534.09
   10.81             3480.17
   10.83             3424.81
   10.85              3368.4
   10.87              3311.3
   10.89             3253.84
   10.91             3196.33
   10.93             3139.06
   10.95             3082.26
   10.97             3026.15
   10.99              2970.9
   11.01             2916.66
   11.03             2863.55
   11.05             2811.65
   11.07             2761.02
   11.09             2711.72
   11.11             2663.77
   11.13             2617.18
   11.15             2571.96
   11.17             2528.09
   11.19             2485.55
   11.21             2444.31
   11.23             2404.36
   11.25             2365.64
   11.27             2328.12
   11.29             2291.76
   11.31             2256.53
   11.33             2222.37
   11.35             2189.26
   11.37             2157.14
   11.39             2125.97
   11.41             2095.72
   11.43             2066.36
   11.45             2037.83
   11.47             2010.11
   11.49             1983.16
   11.51             1956.96
   11.53             1931.45
   11.55             1906.63
   11.57             1882.46
   11.59              1858.9
   11.61             1835.95
   11.63             1813.56
   11.65             1791.72
   11.67             1770.41
   11.69             1749.61
   11.71             1729.28
   11.73             1709.43
   11.75             1690.02
   11.77             1671.04
   11.79             1652.48
   11.81             1634.32
   11.83             1616.54
   11.85             1599.14
   11.87             1582.09
   11.89             1565.39
   11.91             1549.02
   11.93             1532.97
   11.95             1517.24
   11.97             1501.81
   11.99             1486.67
   12.01             1471.82
   12.03             1457.24
   12.05             1442.92
   12.07             1428.87
   12.09             1415.06
   12.11              1401.5
   12.13             1388.18
   12.15             1375.09
   12.17             1362.22
   12.19             1349.57
   12.21             1337.13
   12.23              1324.9
   12.25             1312.88
   12.27             1301.05
   12.29             1289.41
   12.31             1277.96
   12.33              1266.7
   12.35             1255.61
   12.37              1244.7
   12.39             1233.96
   12.41             1223.39
   12.43             1212.99
   12.45             1202.75
   12.47             1192.66
   12.49             1182.73
   12.51             1172.96
   12.53             1163.33
   12.55             1153.85
   12.57             1144.52
   12.59             1135.33
   12.61             1126.28
   12.63             1117.36
   12.65             1108.59
   12.67             1099.94
   12.69             1091.43
   12.71             1083.05
   12.73              1074.8
   12.75             1066.67
   12.77             1058.67
   12.79              1050.8
   12.81             1043.04
   12.83             1035.41
   12.85              1027.9
   12.87             1020.51
   12.89             1013.24
   12.91             1006.08
   12.93             999.047
   12.95             992.125
   12.97             985.319
   12.99             978.628
   13.01             972.051
   13.03             965.589
   13.05             959.241
   13.07             953.007
   13.09             946.887
   13.11             940.881
   13.13             934.989
   13.15             929.211
   13.17             923.548
   13.19                 918
   13.21             912.568
   13.23             907.253
   13.25             902.055
   13.27             896.975
   13.29             892.015
   13.31             887.175
   13.33             882.458
   13.35             877.864
   13.37             873.396
   13.39             869.055
   13.41             864.843
   13.43             860.762
   13.45             856.816
   13.47             853.005
   13.49             849.334
   13.51             845.806
   13.53             842.422
   13.55             839.188
   13.57             836.106
   13.59             833.181
   13.61             830.416
   13.63             827.816
   13.65             825.385
   13.67             823.129
   13.69             821.053
   13.71             819.161
   13.73              817.46
   13.75             815.954
   13.77             814.651
   13.79             813.555
   13.81             812.674
   13.83             812.012
   13.85             811.578
   13.87             811.375
   13.89             811.411
   13.91             811.691
   13.93             812.221
   13.95             813.004
   13.97             814.045
   13.99             815.348
   14.01             816.915
   14.03             818.746
   14.05             820.842
   14.07             823.201
   14.09              825.82
   14.11             828.695
   14.13             831.819
   14.15             835.185
   14.17             838.784
   14.19             842.604
   14.21             846.636
   14.23             850.868
   14.25              855.29
   14.27              859.89
   14.29              864.66
   14.31             869.593
   14.33             874.686
   14.35             879.936
   14.37             885.346
   14.39             890.918
   14.41             896.661
   14.43             902.581
   14.45             908.687
   14.47             914.987
   14.49             921.485
   14.51             928.182
   14.53             935.071
   14.55              942.14
   14.57             949.365
   14.59              956.71
   14.61             964.129
   14.63             971.559
   14.65             978.925
   14.67             986.136
   14.69             993.088
   14.71             999.663
   14.73             1005.73
   14.75             1011.16
   14.77             1015.81
   14.79             1019.54
   14.81              1022.2
   14.83             1023.68
   14.85             1023.86
   14.87             1022.65
   14.89             1019.97
   14.91             1015.79
   14.93              1010.1
   14.95              1002.9
   14.97             994.245
   14.99             984.209
   15.01             972.888
   15.03             960.397
   15.05             946.869
   15.07             932.445
   15.09             917.272
   15.11             901.497
   15.13             885.264
   15.15              868.71
   15.17             851.963
   15.19             835.139
   15.21             818.343
   15.23             801.665
   15.25             785.185
   15.27             768.969
   15.29              753.07
   15.31             737.533
   15.33              722.39
   15.35             707.667
   15.37             693.381
   15.39             679.544
   15.41             666.159
   15.43             653.228
   15.45             640.747
   15.47             628.709
   15.49             617.107
   15.51             605.928
   15.53             595.161
   15.55             584.791
   15.57             574.806
   15.59              565.19
   15.61             555.929
   15.63             547.008
   15.65             538.412
   15.67             530.127
   15.69             522.139
   15.71             514.434
   15.73             506.999
   15.75             499.821
   15.77             492.888
   15.79             486.188
   15.81             479.711
   15.83             473.445
   15.85             467.381
   15.87             461.508
   15.89             455.817
   15.91             450.301
   15.93              444.95
   15.95             439.757
   15.97             434.714
   15.99             429.814
   16.01             425.052
   16.03              420.42
   16.05             415.912
   16.07             411.524
   16.09             407.249
   16.11             403.083
   16.13             399.021
   16.15             395.058
   16.17              391.19
   16.19             387.414
   16.21             383.725
   16.23              380.12
   16.25             376.595
   16.27             373.147
   16.29             369.773
   16.31             366.471
   16.33             363.237
   16.35             360.068
   16.37             356.963
   16.39             353.919
   16.41             350.934
   16.43             348.005
   16.45             345.131
   16.47             342.309
   16.49             339.538
   16.51             336.816
   16.53             334.141
   16.55             331.513
   16.57             328.928
   16.59             326.387
   16.61             323.887
   16.63             321.427
   16.65             319.006
   16.67             316.622
   16.69             314.275
   16.71             311.964
   16.73             309.687
   16.75             307.444
   16.77             305.233
   16.79             303.053
   16.81             300.904
   16.83             298.786
   16.85             296.696
   16.87             294.634
   16.89               292.6
   16.91             290.592
   16.93             288.611
   16.95             286.655
   16.97             284.724
   16.99             282.817
   17.01             280.934
   17.03             279.074
   17.05             277.236
   17.07              275.42
   17.09             273.626
   17.11             271.853
   17.13               270.1
   17.15             268.367
   17.17             266.654
   17.19              264.96
   17.21             263.285
   17.23             261.628
   17.25              259.99
   17.27             258.369
   17.29             256.765
   17.31             255.178
   17.33             253.608
   17.35             252.054
   17.37             250.516
   17.39             248.994
   17.41             247.487
   17.43             245.995
   17.45             244.518
   17.47             243.056
   17.49             241.608
   17.51             240.174
   17.53             238.753
   17.55             237.346
   17.57             235.953
   17.59             234.573
   17.61             233.205
   17.63             231.851
   17.65             230.508
   17.67             229.178
   17.69              227.86
   17.71             226.554
   17.73              225.26
   17.75             223.977
   17.77             222.705
   17.79             221.445
   17.81             220.195
   17.83             218.957
   17.85             217.729
   17.87             216.511
   17.89             215.304
   17.91             214.107
   17.93              212.92
   17.95             211.744
   17.97             210.576
   17.99             209.419
   18.01             208.271
   18.03             207.133
   18.05             206.003
   18.07             204.883
   18.09             203.772
   18.11              202.67
   18.13             201.576
   18.15             200.492
   18.17             199.416
   18.19             198.348
   18.21             197.289
   18.23             196.237
   18.25             195.194
   18.27              194.16
   18.29             193.133
   18.31             192.113
   18.33             191.102
   18.35             190.098
   18.37             189.102
   18.39             188.114
   18.41             187.132
   18.43             186.159
   18.45             185.192
   18.47             184.232
   18.49              183.28
   18.51             182.334
   18.53             181.396
   18.55             180.464
   18.57             179.539
   18.59             178.621
   18.61             177.709
   18.63             176.804
   18.65             175.905
   18.67             175.013
   18.69             174.127
   18.71             173.248
   18.73             172.374
   18.75             171.507
   18.77             170.646
   18.79              169.79
   18.81             168.941
   18.83             168.098
   18.85              167.26
   18.87             166.428
   18.89             165.602
   18.91             164.782
   18.93             163.967
   18.95             163.158
   18.97             162.354
   18.99             161.556
   19.01             160.763
   19.03             159.975
   19.05             159.193
   19.07             158.416
   19.09             157.644
   19.11             156.877
   19.13             156.115
   19.15             155.359
   19.17             154.607
   19.19              153.86
   19.21             153.119
   19.23             152.382
   19.25              151.65
   19.27             150.922
   19.29               150.2
   19.31             149.482
   19.33             148.768
   19.35             148.059
   19.37             147.355
   19.39             146.656
   19.41              145.96
   19.43              145.27
   19.45             144.583
   19.47             143.901
   19.49             143.224
   19.51              142.55
   19.53             141.881
   19.55             141.216
   19.57             140.555
   19.59             139.899
   19.61             139.246
   19.63             138.598
   19.65             137.953
   19.67             137.313
   19.69             136.676
   19.71             136.044
   19.73             135.415
   19.75             134.791
   19.77              134.17
   19.79             133.553
   19.81             132.939
   19.83              132.33
   19.85             131.724
   19.87             131.121
   19.89             130.523
   19.91             129.928
   19.93             129.337
   19.95             128.749
   19.97             128.165
   19.99             127.584
   20.01             127.007
