## w(eV)         sigma(Sm^-1)
    0.01              183076
    0.03              183098
    0.05              183143
    0.07              183211
    0.09              183301
    0.11              183415
    0.13              183551
    0.15              183710
    0.17              183892
    0.19              184098
    0.21              184327
    0.23              184580
    0.25              184857
    0.27              185158
    0.29              185484
    0.31              185834
    0.33              186209
    0.35              186609
    0.37              187034
    0.39              187485
    0.41              187961
    0.43              188463
    0.45              188991
    0.47              189544
    0.49              190123
    0.51              190727
    0.53              191356
    0.55              192010
    0.57              192687
    0.59              193387
    0.61              194108
    0.63              194850
    0.65              195610
    0.67              196388
    0.69              197180
    0.71              197984
    0.73              198799
    0.75              199620
    0.77              200444
    0.79              201269
    0.81              202092
    0.83              202908
    0.85              203716
    0.87              204511
    0.89              205293
    0.91              206059
    0.93              206809
    0.95              207542
    0.97              208259
    0.99              208962
    1.01              209654
    1.03              210339
    1.05              211021
    1.07              211705
    1.09              212398
    1.11              213106
    1.13              213835
    1.15              214591
    1.17              215383
    1.19              216214
    1.21              217092
    1.23              218021
    1.25              219006
    1.27              220050
    1.29              221157
    1.31              222330
    1.33              223569
    1.35              224876
    1.37              226250
    1.39              227691
    1.41              229196
    1.43              230763
    1.45              232387
    1.47              234064
    1.49              235788
    1.51              237550
    1.53              239343
    1.55              241155
    1.57              242977
    1.59              244794
    1.61              246593
    1.63              248359
    1.65              250076
    1.67              251728
    1.69              253297
    1.71              254768
    1.73              256125
    1.75              257353
    1.77              258440
    1.79              259377
    1.81              260156
    1.83              260773
    1.85              261230
    1.87              261528
    1.89              261676
    1.91              261684
    1.93              261567
    1.95              261339
    1.97              261019
    1.99              260625
    2.01              260179
    2.03              259698
    2.05              259203
    2.07              258711
    2.09              258238
    2.11              257801
    2.13              257412
    2.15              257083
    2.17              256824
    2.19              256643
    2.21              256547
    2.23              256542
    2.25              256631
    2.27              256817
    2.29              257102
    2.31              257488
    2.33              257975
    2.35              258563
    2.37              259252
    2.39              260042
    2.41              260931
    2.43              261918
    2.45              263002
    2.47              264183
    2.49              265460
    2.51              266830
    2.53              268294
    2.55              269850
    2.57              271499
    2.59              273238
    2.61              275068
    2.63              276989
    2.65              279000
    2.67              281101
    2.69              283293
    2.71              285576
    2.73              287951
    2.75              290418
    2.77              292977
    2.79              295631
    2.81              298380
    2.83              301225
    2.85              304169
    2.87              307212
    2.89              310356
    2.91              313605
    2.93              316959
    2.95              320421
    2.97              323993
    2.99              327680
    3.01              331482
    3.03              335404
    3.05              339449
    3.07              343620
    3.09              347921
    3.11              352356
    3.13              356929
    3.15              361645
    3.17              366508
    3.19              371523
    3.21              376695
    3.23              382031
    3.25              387535
    3.27              393214
    3.29              399074
    3.31              405122
    3.33              411365
    3.35              417811
    3.37              424467
    3.39              431342
    3.41              438445
    3.43              445784
    3.45              453370
    3.47              461212
    3.49              469323
    3.51              477712
    3.53              486392
    3.55              495375
    3.57              504676
    3.59              514307
    3.61              524284
    3.63              534623
    3.65              545339
    3.67              556451
    3.69              567976
    3.71              579935
    3.73              592347
    3.75              605234
    3.77              618620
    3.79              632527
    3.81              646982
    3.83              662012
    3.85              677645
    3.87              693910
    3.89              710840
    3.91              728468
    3.93              746830
    3.95              765961
    3.97              785902
    3.99              806694
    4.01              828380
    4.03              851005
    4.05              874618
    4.07              899268
    4.09              925008
    4.11              951893
    4.13              979980
    4.15         1.00933e+06
    4.17            1.04e+06
    4.19         1.07206e+06
    4.21         1.10557e+06
    4.23          1.1406e+06
    4.25         1.17721e+06
    4.27         1.21548e+06
    4.29         1.25548e+06
    4.31         1.29726e+06
    4.33          1.3409e+06
    4.35         1.38645e+06
    4.37         1.43398e+06
    4.39         1.48353e+06
    4.41         1.53514e+06
    4.43         1.58885e+06
    4.45         1.64467e+06
    4.47         1.70259e+06
    4.49          1.7626e+06
    4.51         1.82464e+06
    4.53         1.88863e+06
    4.55         1.95445e+06
    4.57         2.02196e+06
    4.59         2.09092e+06
    4.61          2.1611e+06
    4.63         2.23216e+06
    4.65         2.30373e+06
    4.67         2.37536e+06
    4.69         2.44651e+06
    4.71         2.51661e+06
    4.73         2.58498e+06
    4.75         2.65091e+06
    4.77         2.71361e+06
    4.79         2.77228e+06
    4.81         2.82606e+06
    4.83         2.87413e+06
    4.85         2.91568e+06
    4.87         2.94994e+06
    4.89         2.97624e+06
    4.91         2.99402e+06
    4.93         3.00285e+06
    4.95         3.00246e+06
    4.97         2.99275e+06
    4.99         2.97381e+06
    5.01         2.94588e+06
    5.03         2.90939e+06
    5.05          2.8649e+06
    5.07         2.81311e+06
    5.09         2.75481e+06
    5.11         2.69085e+06
    5.13         2.62211e+06
    5.15          2.5495e+06
    5.17         2.47389e+06
    5.19         2.39612e+06
    5.21         2.31699e+06
    5.23          2.2372e+06
    5.25         2.15739e+06
    5.27         2.07814e+06
    5.29         1.99991e+06
    5.31         1.92311e+06
    5.33         1.84809e+06
    5.35         1.77509e+06
    5.37         1.70433e+06
    5.39         1.63596e+06
    5.41         1.57008e+06
    5.43         1.50675e+06
    5.45           1.446e+06
    5.47         1.38783e+06
    5.49         1.33221e+06
    5.51         1.27911e+06
    5.53         1.22847e+06
    5.55         1.18021e+06
    5.57         1.13427e+06
    5.59         1.09056e+06
    5.61         1.04898e+06
    5.63         1.00947e+06
    5.65              971910
    5.67              936228
    5.69              902332
    5.71              870135
    5.73              839554
    5.75              810506
    5.77              782914
    5.79              756702
    5.81              731800
    5.83              708137
    5.85              685649
    5.87              664274
    5.89              643954
    5.91              624633
    5.93              606258
    5.95              588780
    5.97              572151
    5.99              556329
    6.01              541271
    6.03              526939
    6.05              513294
    6.07              500304
    6.09              487934
    6.11              476154
    6.13              464937
    6.15              454253
    6.17              444078
    6.19              434388
    6.21              425161
    6.23              416374
    6.25              408009
    6.27              400047
    6.29              392470
    6.31              385261
    6.33              378406
    6.35              371889
    6.37              365698
    6.39              359818
    6.41              354239
    6.43              348948
    6.45              343936
    6.47              339191
    6.49              334705
    6.51              330468
    6.53              326472
    6.55              322708
    6.57              319168
    6.59              315845
    6.61              312731
    6.63              309819
    6.65              307101
    6.67              304571
    6.69              302219
    6.71              300040
    6.73              298024
    6.75              296163
    6.77              294450
    6.79              292874
    6.81              291426
    6.83              290096
    6.85              288874
    6.87              287749
    6.89              286710
    6.91              285747
    6.93              284848
    6.95              284003
    6.97              283202
    6.99              282437
    7.01              281700
    7.03              280986
    7.05              280289
    7.07              279607
    7.09              278939
    7.11              278287
    7.13              277653
    7.15              277042
    7.17              276460
    7.19              275914
    7.21              275411
    7.23              274961
    7.25              274572
    7.27              274253
    7.29              274011
    7.31              273856
    7.33              273795
    7.35              273836
    7.37              273983
    7.39              274245
    7.41              274625
    7.43              275128
    7.45              275759
    7.47              276522
    7.49              277419
    7.51              278454
    7.53              279630
    7.55              280948
    7.57              282411
    7.59              284021
    7.61              285779
    7.63              287688
    7.65              289749
    7.67              291963
    7.69              294331
    7.71              296856
    7.73              299536
    7.75              302374
    7.77              305368
    7.79              308521
    7.81              311830
    7.83              315297
    7.85              318919
    7.87              322696
    7.89              326627
    7.91              330711
    7.93              334947
    7.95              339333
    7.97              343869
    7.99              348556
    8.01              353395
    8.03              358388
    8.05              363539
    8.07              368854
    8.09              374340
    8.11              380006
    8.13              385865
    8.15              391928
    8.17              398213
    8.19              404736
    8.21              411516
    8.23              418575
    8.25              425932
    8.27              433612
    8.29              441638
    8.31              450033
    8.33              458821
    8.35              468028
    8.37              477678
    8.39              487793
    8.41              498400
    8.43              509519
    8.45              521176
    8.47              533390
    8.49              546183
    8.51              559574
    8.53              573579
    8.55              588215
    8.57              603492
    8.59              619420
    8.61              636001
    8.63              653234
    8.65              671111
    8.67              689617
    8.69              708726
    8.71              728403
    8.73              748601
    8.75              769260
    8.77              790303
    8.79              811639
    8.81              833159
    8.83              854736
    8.85              876223
    8.87              897458
    8.89              918262
    8.91              938439
    8.93              957787
    8.95              976092
    8.97              993145
    8.99         1.00874e+06
    9.01         1.02268e+06
    9.03         1.03479e+06
    9.05         1.04494e+06
    9.07         1.05299e+06
    9.09          1.0589e+06
    9.11         1.06261e+06
    9.13         1.06416e+06
    9.15          1.0636e+06
    9.17         1.06103e+06
    9.19         1.05659e+06
    9.21         1.05047e+06
    9.23         1.04285e+06
    9.25         1.03396e+06
    9.27         1.02403e+06
    9.29         1.01328e+06
    9.31         1.00195e+06
    9.33              990263
    9.35              978419
    9.37              966613
    9.39              955022
    9.41              943801
    9.43              933088
    9.45              923001
    9.47              913642
    9.49              905096
    9.51              897433
    9.53              890713
    9.55              884981
    9.57              880275
    9.59              876625
    9.61              874055
    9.63              872582
    9.65              872223
    9.67              872988
    9.69              874888
    9.71              877934
    9.73              882134
    9.75              887498
    9.77              894037
    9.79              901764
    9.81              910694
    9.83              920841
    9.85              932227
    9.87              944871
    9.89              958800
    9.91              974040
    9.93              990623
    9.95         1.00858e+06
    9.97         1.02796e+06
    9.99         1.04879e+06
   10.01         1.07113e+06
   10.03         1.09502e+06
   10.05         1.12052e+06
   10.07         1.14768e+06
   10.09         1.17656e+06
   10.11         1.20723e+06
   10.13         1.23976e+06
   10.15         1.27422e+06
   10.17         1.31068e+06
   10.19         1.34921e+06
   10.21         1.38991e+06
   10.23         1.43284e+06
   10.25         1.47809e+06
   10.27         1.52574e+06
   10.29         1.57587e+06
   10.31         1.62854e+06
   10.33         1.68383e+06
   10.35          1.7418e+06
   10.37         1.80249e+06
   10.39         1.86594e+06
   10.41         1.93216e+06
   10.43         2.00115e+06
   10.45         2.07287e+06
   10.47         2.14725e+06
   10.49         2.22418e+06
   10.51         2.30351e+06
   10.53         2.38503e+06
   10.55         2.46846e+06
   10.57         2.55347e+06
   10.59         2.63965e+06
   10.61         2.72649e+06
   10.63         2.81342e+06
   10.65         2.89976e+06
   10.67         2.98477e+06
   10.69          3.0676e+06
   10.71         3.14735e+06
   10.73         3.22303e+06
   10.75         3.29364e+06
   10.77         3.35815e+06
   10.79         3.41554e+06
   10.81         3.46484e+06
   10.83         3.50514e+06
   10.85         3.53568e+06
   10.87         3.55582e+06
   10.89          3.5651e+06
   10.91         3.56327e+06
   10.93         3.55027e+06
   10.95         3.52627e+06
   10.97         3.49165e+06
   10.99         3.44695e+06
   11.01         3.39292e+06
   11.03         3.33042e+06
   11.05          3.2604e+06
   11.07          3.1839e+06
   11.09         3.10197e+06
   11.11         3.01566e+06
   11.13           2.926e+06
   11.15         2.83395e+06
   11.17         2.74042e+06
   11.19         2.64622e+06
   11.21         2.55207e+06
   11.23         2.45861e+06
   11.25         2.36638e+06
   11.27         2.27582e+06
   11.29         2.18731e+06
   11.31         2.10115e+06
   11.33         2.01755e+06
   11.35         1.93669e+06
   11.37         1.85868e+06
   11.39         1.78357e+06
   11.41         1.71142e+06
   11.43         1.64221e+06
   11.45         1.57591e+06
   11.47         1.51249e+06
   11.49         1.45186e+06
   11.51         1.39397e+06
   11.53         1.33871e+06
   11.55         1.28601e+06
   11.57         1.23576e+06
   11.59         1.18785e+06
   11.61          1.1422e+06
   11.63          1.0987e+06
   11.65         1.05725e+06
   11.67         1.01775e+06
   11.69              980108
   11.71              944235
   11.73              910041
   11.75              877439
   11.77              846348
   11.79              816691
   11.81              788394
   11.83              761384
   11.85              735596
   11.87              710965
   11.89              687432
   11.91              664938
   11.93              643430
   11.95              622857
   11.97              603171
   11.99              584325
   12.01              566277
   12.03              548986
   12.05              532414
   12.07              516524
   12.09              501282
   12.11              486656
   12.13              472615
   12.15              459132
   12.17              446177
   12.19              433727
   12.21              421756
   12.23              410241
   12.25              399162
   12.27              388497
   12.29              378228
   12.31              368335
   12.33              358802
   12.35              349613
   12.37              340751
   12.39              332202
   12.41              323953
   12.43              315989
   12.45              308299
   12.47              300871
   12.49              293693
   12.51              286754
   12.53              280045
   12.55              273557
   12.57              267279
   12.59              261203
   12.61              255320
   12.63              249624
   12.65              244107
   12.67              238760
   12.69              233579
   12.71              228555
   12.73              223683
   12.75              218958
   12.77              214373
   12.79              209923
   12.81              205603
   12.83              201409
   12.85              197334
   12.87              193377
   12.89              189530
   12.91              185792
   12.93              182158
   12.95              178624
   12.97              175186
   12.99              171842
   13.01              168588
   13.03              165421
   13.05              162338
   13.07              159336
   13.09              156412
   13.11              153564
   13.13              150790
   13.15              148086
   13.17              145450
   13.19              142881
   13.21              140375
   13.23              137932
   13.25              135549
   13.27              133224
   13.29              130955
   13.31              128741
   13.33              126580
   13.35              124470
   13.37              122410
   13.39              120398
   13.41              118433
   13.43              116513
   13.45              114637
   13.47              112804
   13.49              111012
   13.51              109260
   13.53              107548
   13.55              105874
   13.57              104236
   13.59              102635
   13.61              101068
   13.63               99535
   13.65             98035.1
   13.67             96567.2
   13.69             95130.5
   13.71             93724.2
   13.73             92347.4
   13.75             90999.3
   13.77             89679.2
   13.79             88386.3
   13.81               87120
   13.83             85879.5
   13.85             84664.2
   13.87             83473.5
   13.89             82306.6
   13.91             81163.1
   13.93             80042.3
   13.95             78943.7
   13.97             77866.7
   13.99             76810.8
   14.01             75775.5
   14.03             74760.3
   14.05             73764.7
   14.07             72788.2
   14.09             71830.4
   14.11             70890.9
   14.13             69969.2
   14.15             69064.9
   14.17             68177.6
   14.19             67306.9
   14.21             66452.4
   14.23             65613.9
   14.25             64790.8
   14.27             63982.8
   14.29             63189.7
   14.31             62411.1
   14.33             61646.7
   14.35             60896.1
   14.37             60159.1
   14.39             59435.4
   14.41             58724.7
   14.43             58026.7
   14.45             57341.2
   14.47             56667.8
   14.49             56006.4
   14.51             55356.6
   14.53             54718.3
   14.55               54091
   14.57             53474.6
   14.59             52868.7
   14.61             52273.1
   14.63             51687.4
   14.65             51111.3
   14.67             50544.5
   14.69             49986.7
   14.71             49437.5
   14.73             48896.5
   14.75             48363.3
   14.77             47837.7
   14.79             47319.2
   14.81             46807.4
   14.83             46302.2
   14.85             45803.1
   14.87             45309.8
   14.89             44822.2
   14.91             44339.9
   14.93               43863
   14.95             43391.1
   14.97             42924.3
   14.99             42462.5
   15.01             42005.8
   15.03               41554
   15.05             41107.4
   15.07             40665.9
   15.09             40229.6
   15.11             39798.6
   15.13             39372.9
   15.15             38952.7
   15.17               38538
   15.19             38128.9
   15.21             37725.3
   15.23             37327.2
   15.25             36934.8
   15.27               36548
   15.29             36166.7
   15.31             35790.9
   15.33             35420.6
   15.35             35055.7
   15.37             34696.1
   15.39             34341.8
   15.41             33992.7
   15.43             33648.7
   15.45             33309.7
   15.47             32975.7
   15.49             32646.5
   15.51             32322.1
   15.53             32002.4
   15.55             31687.3
   15.57             31376.6
   15.59             31070.4
   15.61             30768.5
   15.63             30470.8
   15.65             30177.3
   15.67             29887.8
   15.69             29602.4
   15.71             29320.9
   15.73             29043.2
   15.75             28769.3
   15.77             28499.1
   15.79             28232.5
   15.81             27969.4
   15.83             27709.9
   15.85             27453.8
   15.87               27201
   15.89             26951.5
   15.91             26705.3
   15.93             26462.2
   15.95             26222.3
   15.97             25985.5
   15.99             25751.6
   16.01             25520.7
   16.03             25292.7
   16.05             25067.6
   16.07             24845.3
   16.09             24625.7
   16.11             24408.9
   16.13             24194.7
   16.15             23983.1
   16.17             23774.1
   16.19             23567.7
   16.21             23363.7
   16.23             23162.2
   16.25             22963.1
   16.27             22766.4
   16.29               22572
   16.31               22380
   16.33             22190.1
   16.35             22002.6
   16.37             21817.2
   16.39             21633.9
   16.41             21452.8
   16.43             21273.8
   16.45             21096.8
   16.47             20921.9
   16.49               20749
   16.51               20578
   16.53               20409
   16.55             20241.9
   16.57             20076.6
   16.59             19913.2
   16.61             19751.7
   16.63             19591.9
   16.65             19433.9
   16.67             19277.7
   16.69             19123.2
   16.71             18970.3
   16.73             18819.2
   16.75             18669.7
   16.77             18521.8
   16.79             18375.5
   16.81             18230.8
   16.83             18087.7
   16.85             17946.1
   16.87               17806
   16.89             17667.4
   16.91             17530.3
   16.93             17394.6
   16.95             17260.3
   16.97             17127.5
   16.99             16996.1
   17.01               16866
   17.03             16737.3
   17.05             16609.9
   17.07             16483.9
   17.09             16359.1
   17.11             16235.7
   17.13             16113.5
   17.15             15992.5
   17.17             15872.8
   17.19             15754.3
   17.21               15637
   17.23             15520.9
   17.25             15405.9
   17.27             15292.1
   17.29             15179.5
   17.31               15068
   17.33             14957.6
   17.35             14848.2
   17.37               14740
   17.39             14632.8
   17.41             14526.7
   17.43             14421.7
   17.45             14317.6
   17.47             14214.6
   17.49             14112.6
   17.51             14011.6
   17.53             13911.5
   17.55             13812.4
   17.57             13714.3
   17.59             13617.1
   17.61             13520.8
   17.63             13425.5
   17.65             13331.1
   17.67             13237.5
   17.69             13144.9
   17.71             13053.1
   17.73             12962.2
   17.75             12872.2
   17.77             12782.9
   17.79             12694.6
   17.81               12607
   17.83             12520.3
   17.85             12434.3
   17.87             12349.2
   17.89             12264.8
   17.91             12181.3
   17.93             12098.4
   17.95             12016.4
   17.97             11935.1
   17.99             11854.5
   18.01             11774.7
   18.03             11695.6
   18.05             11617.2
   18.07             11539.5
   18.09             11462.5
   18.11             11386.2
   18.13             11310.6
   18.15             11235.6
   18.17             11161.4
   18.19             11087.7
   18.21             11014.8
   18.23             10942.5
   18.25             10870.8
   18.27             10799.7
   18.29             10729.3
   18.31             10659.5
   18.33             10590.3
   18.35             10521.7
   18.37             10453.7
   18.39             10386.2
   18.41             10319.4
   18.43             10253.2
   18.45             10187.5
   18.47             10122.3
   18.49             10057.8
   18.51             9993.76
   18.53             9930.29
   18.55             9867.36
   18.57             9804.96
   18.59              9743.1
   18.61             9681.75
   18.63             9620.92
   18.65              9560.6
   18.67             9500.79
   18.69             9441.48
   18.71             9382.66
   18.73             9324.34
   18.75             9266.49
   18.77             9209.13
   18.79             9152.24
   18.81             9095.82
   18.83             9039.87
   18.85             8984.38
   18.87             8929.34
   18.89             8874.75
   18.91              8820.6
   18.93              8766.9
   18.95             8713.63
   18.97              8660.8
   18.99             8608.39
   19.01              8556.4
   19.03             8504.84
   19.05             8453.68
   19.07             8402.94
   19.09             8352.61
   19.11             8302.67
   19.13             8253.14
   19.15             8203.99
   19.17             8155.24
   19.19             8106.87
   19.21             8058.89
   19.23             8011.28
   19.25             7964.05
   19.27             7917.19
   19.29             7870.69
   19.31             7824.56
   19.33             7778.79
   19.35             7733.37
   19.37             7688.31
   19.39              7643.6
   19.41             7599.23
   19.43             7555.21
   19.45             7511.52
   19.47             7468.17
   19.49             7425.15
   19.51             7382.46
   19.53              7340.1
   19.55             7298.06
   19.57             7256.34
   19.59             7214.94
   19.61             7173.85
   19.63             7133.07
   19.65              7092.6
   19.67             7052.43
   19.69             7012.57
   19.71                6973
   19.73             6933.73
   19.75             6894.75
   19.77             6856.07
   19.79             6817.67
   19.81             6779.56
   19.83             6741.73
   19.85             6704.18
   19.87             6666.91
   19.89             6629.91
   19.91             6593.18
   19.93             6556.73
   19.95             6520.54
   19.97             6484.61
   19.99             6448.95
   20.01             6413.55
