## w(eV)         sigma(Sm^-1)     kappa(W(mK)^-1)        L12/e(Am^-1)      L22/e^2(Wm^-1)
    0.01         2.73535e+06              1831.7        -4.12231e+07         7.94775e+08
    0.03         2.73423e+06             1830.87        -4.12053e+07         7.94412e+08
    0.05           2.732e+06             1829.22        -4.11695e+07         7.93684e+08
    0.07         2.72863e+06             1826.74        -4.11156e+07         7.92591e+08
    0.09         2.72412e+06             1823.43        -4.10436e+07         7.91132e+08
    0.11         2.71842e+06             1819.31        -4.09531e+07         7.89305e+08
    0.13         2.71153e+06             1814.36        -4.08438e+07          7.8711e+08
    0.15          2.7034e+06             1808.61        -4.07155e+07         7.84544e+08
    0.17         2.69399e+06             1802.04        -4.05678e+07         7.81606e+08
    0.19         2.68328e+06             1794.68        -4.04003e+07         7.78295e+08
    0.21          2.6712e+06             1786.52        -4.02127e+07         7.74609e+08
    0.23         2.65773e+06             1777.59        -4.00045e+07         7.70549e+08
    0.25         2.64282e+06             1767.89        -3.97754e+07         7.66113e+08
    0.27         2.62642e+06             1757.44        -3.95251e+07         7.61302e+08
    0.29         2.60849e+06             1746.26        -3.92532e+07         7.56119e+08
    0.31         2.58899e+06             1734.37        -3.89594e+07         7.50566e+08
    0.33         2.56789e+06              1721.8        -3.86436e+07         7.44646e+08
    0.35         2.54516e+06             1708.57        -3.83055e+07         7.38366e+08
    0.37         2.52077e+06             1694.71        -3.79451e+07         7.31731e+08
    0.39          2.4947e+06             1680.26        -3.75625e+07          7.2475e+08
    0.41         2.46694e+06             1665.25        -3.71577e+07         7.17433e+08
    0.43         2.43748e+06             1649.72         -3.6731e+07         7.09789e+08
    0.45         2.40633e+06             1633.71        -3.62826e+07         7.01834e+08
    0.47         2.37351e+06             1617.26        -3.58131e+07          6.9358e+08
    0.49         2.33902e+06             1600.42        -3.53229e+07         6.85044e+08
    0.51         2.30291e+06             1583.23        -3.48128e+07         6.76244e+08
    0.53         2.26522e+06             1565.73        -3.42836e+07           6.672e+08
    0.55           2.226e+06             1547.98        -3.37361e+07         6.57931e+08
    0.57         2.18531e+06             1530.02        -3.31714e+07          6.4846e+08
    0.59         2.14323e+06             1511.89        -3.25907e+07          6.3881e+08
    0.61         2.09983e+06             1493.63        -3.19952e+07         6.29006e+08
    0.63         2.05521e+06             1475.29        -3.13862e+07         6.19074e+08
    0.65         2.00947e+06              1456.9        -3.07653e+07         6.09038e+08
    0.67         1.96271e+06             1438.51        -3.01339e+07         5.98925e+08
    0.69         1.91506e+06             1420.13        -2.94937e+07         5.88764e+08
    0.71         1.86663e+06              1401.8        -2.88464e+07         5.78581e+08
    0.73         1.81755e+06             1383.54        -2.81937e+07         5.68403e+08
    0.75         1.76797e+06             1365.38        -2.75373e+07         5.58259e+08
    0.77         1.71801e+06             1347.31        -2.68792e+07         5.48174e+08
    0.79         1.66781e+06             1329.36         -2.6221e+07         5.38175e+08
    0.81         1.61753e+06             1311.53        -2.55647e+07         5.28289e+08
    0.83          1.5673e+06             1293.81         -2.4912e+07         5.18539e+08
    0.85         1.51728e+06              1276.2        -2.42648e+07          5.0895e+08
    0.87         1.46759e+06              1258.7        -2.36249e+07         4.99545e+08
    0.89          1.4184e+06             1241.27        -2.29939e+07         4.90346e+08
    0.91         1.36983e+06             1223.92        -2.23735e+07         4.81371e+08
    0.93         1.32202e+06             1206.61        -2.17653e+07         4.72641e+08
    0.95          1.2751e+06             1189.33        -2.11708e+07         4.64173e+08
    0.97          1.2292e+06             1172.06        -2.05916e+07         4.55981e+08
    0.99         1.18444e+06             1154.77        -2.00288e+07         4.48079e+08
    1.01         1.14092e+06             1137.45        -1.94837e+07          4.4048e+08
    1.03         1.09875e+06             1120.09        -1.89575e+07         4.33194e+08
    1.05         1.05803e+06             1102.67        -1.84511e+07          4.2623e+08
    1.07         1.01885e+06              1085.2        -1.79655e+07         4.19593e+08
    1.09              981272             1067.69        -1.75014e+07         4.13288e+08
    1.11              945376             1050.15        -1.70593e+07          4.0732e+08
    1.13              911219             1032.64        -1.66399e+07         4.01688e+08
    1.15              878849             1015.19        -1.62434e+07         3.96392e+08
    1.17              848305             997.887        -1.58701e+07         3.91431e+08
    1.19              819617             980.806        -1.55201e+07           3.868e+08
    1.21              792804             964.058        -1.51934e+07         3.82494e+08
    1.23              767876             947.767        -1.48897e+07         3.78507e+08
    1.25              744833             932.074        -1.46088e+07         3.74828e+08
    1.27              723666             917.137        -1.43503e+07          3.7145e+08
    1.29              704358             903.125        -1.41137e+07          3.6836e+08
    1.31              686883             890.215        -1.38983e+07         3.65547e+08
    1.33              671207             878.589        -1.37033e+07         3.62997e+08
    1.35              657289             868.428         -1.3528e+07         3.60695e+08
    1.37              645079             859.906        -1.33714e+07         3.58627e+08
    1.39              634524             853.184        -1.32325e+07         3.56776e+08
    1.41              625561             848.407        -1.31101e+07         3.55124e+08
    1.43              618124             845.699        -1.30031e+07         3.53654e+08
    1.45              612143             845.156        -1.29104e+07         3.52349e+08
    1.47              607539             846.849        -1.28305e+07         3.51188e+08
    1.49              604235              850.82        -1.27622e+07         3.50153e+08
    1.51              602148             857.079        -1.27041e+07         3.49224e+08
    1.53              601190             865.609        -1.26549e+07         3.48383e+08
    1.55              601276             876.368        -1.26131e+07         3.47608e+08
    1.57              602314             889.286        -1.25774e+07         3.46881e+08
    1.59              604215             904.275        -1.25463e+07         3.46183e+08
    1.61              606888             921.227        -1.25185e+07         3.45493e+08
    1.63              610240             940.017        -1.24926e+07         3.44794e+08
    1.65              614181             960.511        -1.24673e+07         3.44066e+08
    1.67              618620             982.562        -1.24413e+07         3.43294e+08
    1.69              623468             1006.02        -1.24134e+07         3.42458e+08
    1.71              628636             1030.72        -1.23825e+07         3.41544e+08
    1.73              634040              1056.5        -1.23473e+07         3.40535e+08
    1.75              639594              1083.2        -1.23068e+07         3.39418e+08
    1.77              645218             1110.65        -1.22602e+07          3.3818e+08
    1.79              650832             1138.68        -1.22066e+07         3.36808e+08
    1.81              656362             1167.12        -1.21451e+07         3.35292e+08
    1.83              661736              1195.8        -1.20751e+07         3.33622e+08
    1.85              666884             1224.55         -1.1996e+07          3.3179e+08
    1.87              671743             1253.21        -1.19074e+07         3.29791e+08
    1.89              676250             1281.62        -1.18088e+07         3.27618e+08
    1.91              680349              1309.6        -1.17001e+07          3.2527e+08
    1.93              683988                1337         -1.1581e+07         3.22743e+08
    1.95              687118             1363.67        -1.14516e+07         3.20037e+08
    1.97              689695             1389.46        -1.13119e+07         3.17155e+08
    1.99              691681             1414.23         -1.1162e+07         3.14099e+08
    2.01              693040             1437.85        -1.10022e+07         3.10873e+08
    2.03              693741             1460.19        -1.08329e+07         3.07485e+08
    2.05              693760             1481.15        -1.06545e+07          3.0394e+08
    2.07              693075             1500.62        -1.04676e+07          3.0025e+08
    2.09              691670             1518.51        -1.02727e+07         2.96423e+08
    2.11              689533             1534.74        -1.00706e+07         2.92471e+08
    2.13              686657             1549.27        -9.86205e+06         2.88409e+08
    2.15              683037             1562.03        -9.64776e+06         2.84248e+08
    2.17              678675             1573.02        -9.42861e+06         2.80004e+08
    2.19              673576              1582.2        -9.20549e+06         2.75693e+08
    2.21              667750             1589.59        -8.97931e+06         2.71331e+08
    2.23              661209             1595.19        -8.75098e+06         2.66934e+08
    2.25              653971             1599.06        -8.52144e+06         2.62519e+08
    2.27              646054             1601.22        -8.29162e+06         2.58104e+08
    2.29              637483             1601.75        -8.06244e+06         2.53705e+08
    2.31              628283             1600.71         -7.8348e+06          2.4934e+08
    2.33              618485             1598.19        -7.60958e+06         2.45026e+08
    2.35              608120             1594.29        -7.38762e+06         2.40778e+08
    2.37              597222             1589.09        -7.16972e+06         2.36612e+08
    2.39              585828             1582.72        -6.95662e+06         2.32543e+08
    2.41              573976             1575.26        -6.74902e+06         2.28586e+08
    2.43              561706             1566.85        -6.54756e+06         2.24753e+08
    2.45              549059             1557.57        -6.35281e+06         2.21057e+08
    2.47              536078             1547.54        -6.16529e+06         2.17507e+08
    2.49              522805             1536.86        -5.98542e+06         2.14115e+08
    2.51              509285             1525.62        -5.81359e+06         2.10889e+08
    2.53              495561             1513.91         -5.6501e+06         2.07835e+08
    2.55              481677             1501.79        -5.49518e+06          2.0496e+08
    2.57              467679             1489.35        -5.34899e+06         2.02268e+08
    2.59              453608             1476.62        -5.21166e+06         1.99762e+08
    2.61              439509             1463.64         -5.0832e+06         1.97444e+08
    2.63              425422             1450.44        -4.96362e+06         1.95316e+08
    2.65              411391             1437.02        -4.85283e+06         1.93377e+08
    2.67              397454             1423.39        -4.75071e+06         1.91626e+08
    2.69              383650             1409.52        -4.65711e+06         1.90059e+08
    2.71              370016             1395.38        -4.57182e+06         1.88676e+08
    2.73              356589             1380.92        -4.49462e+06          1.8747e+08
    2.75              343402              1366.1        -4.42523e+06         1.86439e+08
    2.77              330487             1350.83        -4.36339e+06         1.85577e+08
    2.79              317876             1335.06        -4.30881e+06         1.84879e+08
    2.81              305597             1318.68        -4.26119e+06         1.84339e+08
    2.83              293676             1301.63        -4.22023e+06         1.83953e+08
    2.85              282139             1283.81        -4.18565e+06         1.83714e+08
    2.87              271010             1265.14        -4.15717e+06         1.83618e+08
    2.89              260310             1245.52        -4.13453e+06          1.8366e+08
    2.91              250060             1224.89         -4.1175e+06         1.83835e+08
    2.93              240278             1203.16        -4.10586e+06         1.84139e+08
    2.95              230981              1180.3        -4.09945e+06          1.8457e+08
    2.97              222186             1156.27        -4.09813e+06         1.85124e+08
    2.99              213908             1131.04        -4.10179e+06           1.858e+08
    3.01              206161             1104.64        -4.11038e+06         1.86597e+08
    3.03              198957              1077.1        -4.12389e+06         1.87515e+08
    3.05              192309             1048.51        -4.14235e+06         1.88555e+08
    3.07              186230             1018.99        -4.16585e+06         1.89719e+08
    3.09              180730             988.689         -4.1945e+06          1.9101e+08
    3.11              175821             957.815         -4.2285e+06         1.92431e+08
    3.13              171515             926.612        -4.26805e+06         1.93988e+08
    3.15              167823             895.368        -4.31344e+06         1.95686e+08
    3.17              164755             864.405        -4.36497e+06         1.97531e+08
    3.19              162323             834.072        -4.42299e+06         1.99531e+08
    3.21              160540             804.736         -4.4879e+06         2.01694e+08
    3.23              159416             776.769        -4.56012e+06         2.04028e+08
    3.25              158965              750.53         -4.6401e+06         2.06542e+08
    3.27              159198             726.354        -4.72832e+06         2.09245e+08
    3.29              160127             704.533        -4.82527e+06         2.12147e+08
    3.31              161766             685.307        -4.93146e+06         2.15257e+08
    3.33              164127              668.85        -5.04742e+06         2.18586e+08
    3.35              167221             655.269        -5.17364e+06         2.22142e+08
    3.37              171061             644.597        -5.31065e+06         2.25935e+08
    3.39              175657             636.801        -5.45892e+06         2.29974e+08
    3.41              181019             631.784        -5.61894e+06         2.34265e+08
    3.43              187156             629.397        -5.79113e+06         2.38818e+08
    3.45              194075              629.45        -5.97589e+06         2.43636e+08
    3.47              201782             631.723        -6.17357e+06         2.48727e+08
    3.49              210279             635.974        -6.38446e+06         2.54092e+08
    3.51              219566             641.957         -6.6088e+06         2.59735e+08
    3.53              229642             649.423        -6.84672e+06         2.65655e+08
    3.55              240499              658.13        -7.09831e+06         2.71852e+08
    3.57              252130             667.851        -7.36354e+06         2.78322e+08
    3.59              264520             678.373        -7.64231e+06         2.85059e+08
    3.61              277651             689.499        -7.93439e+06         2.92057e+08
    3.63              291502             701.054        -8.23947e+06         2.99306e+08
    3.65              306044              712.88         -8.5571e+06         3.06793e+08
    3.67              321245             724.837        -8.88673e+06         3.14503e+08
    3.69              337067             736.801        -9.22769e+06          3.2242e+08
    3.71              353468             748.664        -9.57918e+06         3.30524e+08
    3.73              370398             760.334        -9.94027e+06         3.38793e+08
    3.75              387804             771.728        -1.03099e+07         3.47201e+08
    3.77              405625             782.777         -1.0687e+07         3.55723e+08
    3.79              423798             793.418        -1.10701e+07         3.64329e+08
    3.81              442251             803.599         -1.1458e+07         3.72986e+08
    3.83              460911             813.274        -1.18491e+07         3.81662e+08
    3.85              479698             822.404        -1.22419e+07          3.9032e+08
    3.87              498528             830.954        -1.26345e+07         3.98923e+08
    3.89              517314             838.895        -1.30253e+07         4.07433e+08
    3.91              535967               846.2        -1.34125e+07         4.15808e+08
    3.93              554394             852.847        -1.37941e+07         4.24008e+08
    3.95              572499             858.815        -1.41682e+07         4.31991e+08
    3.97              590188             864.088        -1.45328e+07         4.39714e+08
    3.99              607365             868.651        -1.48861e+07         4.47135e+08
    4.01              623935             872.491        -1.52259e+07         4.54212e+08
    4.03              639803             875.596        -1.55505e+07         4.60904e+08
    4.05              654877             877.956        -1.58578e+07         4.67169e+08
    4.07              669068             879.565        -1.61462e+07         4.72969e+08
    4.09              682291             880.415        -1.64137e+07         4.78266e+08
    4.11              694464             880.502        -1.66588e+07         4.83024e+08
    4.13              705513             879.823        -1.68799e+07         4.87212e+08
    4.15              715367             878.375        -1.70755e+07         4.90798e+08
    4.17              723964             876.158        -1.72445e+07         4.93755e+08
    4.19              731248             873.175        -1.73855e+07         4.96059e+08
    4.21              737171             869.427        -1.74976e+07          4.9769e+08
    4.23              741695             864.921        -1.75801e+07         4.98631e+08
    4.25              744790             859.662        -1.76323e+07         4.98869e+08
    4.27              746433              853.66        -1.76538e+07         4.98396e+08
    4.29              746613             846.925        -1.76442e+07         4.97207e+08
    4.31              745327              839.47        -1.76037e+07         4.95302e+08
    4.33              742583             831.309        -1.75322e+07         4.92684e+08
    4.35              738397             822.459        -1.74302e+07         4.89363e+08
    4.37              732794              812.94        -1.72982e+07         4.85351e+08
    4.39              725808             802.773        -1.71369e+07         4.80665e+08
    4.41              717484             791.981        -1.69472e+07         4.75324e+08
    4.43              707871              780.59        -1.67301e+07         4.69354e+08
    4.45              697029             768.627        -1.64869e+07         4.62781e+08
    4.47              685023             756.121         -1.6219e+07         4.55639e+08
    4.49              671925             743.104        -1.59278e+07         4.47959e+08
    4.51              657813              729.61        -1.56149e+07          4.3978e+08
    4.53              642769             715.672        -1.52822e+07         4.31141e+08
    4.55              626879             701.327        -1.49314e+07         4.22083e+08
    4.57              610233             686.612        -1.45643e+07         4.12649e+08
    4.59              592923             671.565         -1.4183e+07         4.02884e+08
    4.61              575043             656.227        -1.37894e+07         3.92832e+08
    4.63              556686             640.635        -1.33855e+07         3.82541e+08
    4.65              537947             624.832        -1.29732e+07         3.72055e+08
    4.67              518920             608.856        -1.25546e+07         3.61422e+08
    4.69              499695             592.748        -1.21317e+07         3.50687e+08
    4.71              480363             576.547        -1.17063e+07         3.39895e+08
    4.73              461010             560.292        -1.12803e+07         3.29091e+08
    4.75              441719             544.021        -1.08555e+07         3.18316e+08
    4.77              422571             527.769        -1.04337e+07         3.07613e+08
    4.79              403639             511.573        -1.00164e+07         2.97021e+08
    4.81              384995             495.464        -9.60524e+06         2.86578e+08
    4.83              366702             479.474        -9.20165e+06         2.76319e+08
    4.85              348822             463.632        -8.80698e+06         2.66277e+08
    4.87              331410             447.963        -8.42245e+06         2.56485e+08
    4.89              314513             432.492        -8.04919e+06          2.4697e+08
    4.91              298176             417.238        -7.68821e+06          2.3776e+08
    4.93              282437             402.219        -7.34041e+06         2.28877e+08
    4.95              267328              387.45        -7.00657e+06         2.20344e+08
    4.97              252876             372.943        -6.68739e+06          2.1218e+08
    4.99              239105             358.705        -6.38344e+06         2.04401e+08
    5.01              226032             344.743        -6.09518e+06         1.97021e+08
    5.03              213668             331.059          -5.823e+06         1.90054e+08
    5.05              202023             317.654        -5.56718e+06         1.83508e+08
    5.07              191101             304.527         -5.3279e+06         1.77391e+08
    5.09              180902             291.676        -5.10529e+06          1.7171e+08
    5.11              171423             279.097        -4.89939e+06         1.66467e+08
    5.13              162659             266.789        -4.71015e+06         1.61666e+08
    5.15              154600              254.75        -4.53747e+06         1.57307e+08
    5.17              147235             242.982        -4.38122e+06         1.53388e+08
    5.19              140551             231.489        -4.24116e+06         1.49907e+08
    5.21              134533             220.281        -4.11706e+06         1.46861e+08
    5.23              129164             209.372        -4.00862e+06         1.44242e+08
    5.25              124426             198.782        -3.91552e+06         1.42047e+08
    5.27              120300             188.536        -3.83738e+06         1.40267e+08
    5.29              116768             178.665        -3.77385e+06         1.38893e+08
    5.31              113808             169.204        -3.72451e+06         1.37918e+08
    5.33              111402             160.192        -3.68896e+06         1.37332e+08
    5.35              109529             151.668        -3.66677e+06         1.37123e+08
    5.37              108169             143.673        -3.65753e+06         1.37283e+08
    5.39              107305             136.244        -3.66082e+06         1.37799e+08
    5.41              106917             129.414        -3.67621e+06         1.38661e+08
    5.43              106988             123.213        -3.70329e+06         1.39858e+08
    5.45              107502             117.663        -3.74167e+06         1.41378e+08
    5.47              108443              112.78        -3.79097e+06         1.43209e+08
    5.49              109797             108.576        -3.85082e+06         1.45342e+08
    5.51              111553             105.053        -3.92089e+06         1.47765e+08
    5.53              113698              102.21        -4.00086e+06         1.50467e+08
    5.55              116223             100.043        -4.09045e+06          1.5344e+08
    5.57              119121             98.5442        -4.18938e+06         1.56672e+08
    5.59              122385             97.7026        -4.29745e+06         1.60157e+08
    5.61              126011             97.5077        -4.41444e+06         1.63884e+08
    5.63              129997              97.948        -4.54019e+06         1.67847e+08
    5.65              134341             99.0129        -4.67457e+06         1.72038e+08
    5.67              139043             100.692        -4.81747e+06         1.76451e+08
    5.69              144107             102.978        -4.96882e+06          1.8108e+08
    5.71              149536             105.861        -5.12858e+06         1.85921e+08
    5.73              155336             109.337        -5.29672e+06         1.90968e+08
    5.75              161512               113.4        -5.47324e+06         1.96217e+08
    5.77              168073             118.047        -5.65818e+06         2.01665e+08
    5.79              175028             123.273        -5.85156e+06         2.07308e+08
    5.81              182385             129.077        -6.05343e+06         2.13143e+08
    5.83              190156             135.455        -6.26384e+06         2.19166e+08
    5.85              198351             142.406        -6.48284e+06         2.25374e+08
    5.87              206980             149.928        -6.71048e+06         2.31763e+08
    5.89              216053             158.015        -6.94678e+06         2.38329e+08
    5.91              225582             166.665        -7.19174e+06         2.45068e+08
    5.93              235574             175.872        -7.44537e+06         2.51973e+08
    5.95              246040              185.63        -7.70759e+06         2.59038e+08
    5.97              256985              195.93        -7.97833e+06         2.66255e+08
    5.99              268416             206.763        -8.25744e+06         2.73615e+08
    6.01              280336             218.116        -8.54473e+06         2.81109e+08
    6.03              292747             229.975        -8.83996e+06         2.88723e+08
    6.05              305649             242.323        -9.14283e+06         2.96444e+08
    6.07              319037             255.141        -9.45294e+06         3.04257e+08
    6.09              332907             268.405        -9.76986e+06         3.12144e+08
    6.11              347249              282.09        -1.00931e+07         3.20087e+08
    6.13              362050             296.166         -1.0422e+07         3.28065e+08
    6.15              377295             310.601        -1.07559e+07         3.36054e+08
    6.17              392966             325.357        -1.10942e+07         3.44032e+08
    6.19              409039             340.393        -1.14359e+07         3.51971e+08
    6.21              425488             355.665        -1.17802e+07         3.59844e+08
    6.23              442283             371.123        -1.21262e+07         3.67623e+08
    6.25              459392             386.713        -1.24728e+07         3.75278e+08
    6.27              476778              402.38         -1.2819e+07         3.82777e+08
    6.29              494400             418.061        -1.31636e+07          3.9009e+08
    6.31              512215             433.692        -1.35056e+07         3.97185e+08
    6.33              530177             449.205        -1.38436e+07          4.0403e+08
    6.35              548238             464.529        -1.41766e+07         4.10593e+08
    6.37              566345              479.59        -1.45033e+07         4.16844e+08
    6.39              584446             494.314        -1.48225e+07         4.22751e+08
    6.41              602484             508.624         -1.5133e+07         4.28287e+08
    6.43              620404             522.444        -1.54335e+07         4.33423e+08
    6.45              638147             535.697        -1.57229e+07         4.38134e+08
    6.47              655656             548.307        -1.60001e+07         4.42396e+08
    6.49              672871             560.202         -1.6264e+07         4.46189e+08
    6.51              689736             571.312        -1.65137e+07         4.49493e+08
    6.53              706191             581.569        -1.67481e+07         4.52294e+08
    6.55              722182             590.911        -1.69665e+07         4.54579e+08
    6.57              737653             599.283         -1.7168e+07         4.56338e+08
    6.59              752554             606.633        -1.73521e+07         4.57566e+08
    6.61              766833             612.919        -1.75181e+07         4.58261e+08
    6.63              780445             618.105        -1.76656e+07         4.58423e+08
    6.65              793346             622.164        -1.77943e+07         4.58057e+08
    6.67              805496             625.076         -1.7904e+07         4.57172e+08
    6.69              816862             626.833        -1.79945e+07         4.55779e+08
    6.71              827411             627.435        -1.80659e+07         4.53893e+08
    6.73              837117              626.89        -1.81183e+07         4.51532e+08
    6.75              845959             625.218        -1.81519e+07         4.48718e+08
    6.77              853921             622.446        -1.81672e+07         4.45474e+08
    6.79              860990             618.611        -1.81646e+07         4.41826e+08
    6.81              867162             613.759        -1.81446e+07         4.37804e+08
    6.83              872434             607.943         -1.8108e+07         4.33438e+08
    6.85              876810             601.224        -1.80555e+07          4.2876e+08
    6.87              880299             593.672         -1.7988e+07         4.23805e+08
    6.89              882914             585.358        -1.79062e+07         4.18606e+08
    6.91              884672             576.363        -1.78113e+07         4.13199e+08
    6.93              885596             566.769        -1.77042e+07          4.0762e+08
    6.95              885711             556.663        -1.75859e+07         4.01905e+08
    6.97              885047             546.134        -1.74576e+07         3.96089e+08
    6.99              883635              535.27        -1.73203e+07         3.90207e+08
    7.01              881511             524.163        -1.71752e+07         3.84293e+08
    7.03              878711             512.901        -1.70233e+07          3.7838e+08
    7.05              875275             501.573        -1.68657e+07           3.725e+08
    7.07              871243             490.264        -1.67035e+07         3.66683e+08
    7.09              866656             479.056        -1.65377e+07         3.60957e+08
    7.11              861557             468.028        -1.63693e+07          3.5535e+08
    7.13              855986             457.255        -1.61993e+07         3.49886e+08
    7.15              849987             446.806        -1.60286e+07         3.44587e+08
    7.17              843599             436.744         -1.5858e+07         3.39475e+08
    7.19              836864             427.129        -1.56884e+07         3.34567e+08
    7.21              829819             418.012        -1.55204e+07         3.29882e+08
    7.23              822503             409.441        -1.53547e+07         3.25432e+08
    7.25              814951             401.457         -1.5192e+07         3.21232e+08
    7.27              807198             394.094        -1.50327e+07         3.17293e+08
    7.29              799276             387.381        -1.48775e+07         3.13622e+08
    7.31              791215             381.342        -1.47267e+07         3.10229e+08
    7.33              783044             375.995        -1.45807e+07          3.0712e+08
    7.35              774789             371.351        -1.44399e+07         3.04299e+08
    7.37              766474             367.418        -1.43046e+07         3.01771e+08
    7.39              758123             364.198         -1.4175e+07         2.99538e+08
    7.41              749758             361.689        -1.40514e+07         2.97603e+08
    7.43              741397             359.883        -1.39339e+07         2.95967e+08
    7.45              733059             358.769        -1.38227e+07          2.9463e+08
    7.47              724761              358.33         -1.3718e+07         2.93593e+08
    7.49              716520             358.546        -1.36198e+07         2.92855e+08
    7.51              708351             359.391        -1.35284e+07         2.92417e+08
    7.53              700269             360.837        -1.34438e+07         2.92276e+08
    7.55              692287             362.849         -1.3366e+07         2.92432e+08
    7.57              684419             365.391        -1.32953e+07         2.92883e+08
    7.59              676677             368.419        -1.32316e+07         2.93627e+08
    7.61              669075             371.887        -1.31749e+07         2.94661e+08
    7.63              661625             375.744        -1.31255e+07         2.95982e+08
    7.65              654337             379.936        -1.30832e+07         2.97586e+08
    7.67              647224             384.405        -1.30482e+07         2.99469e+08
    7.69              640295             389.089        -1.30203e+07         3.01625e+08
    7.71              633562             393.923        -1.29996e+07         3.04047e+08
    7.73              627031             398.841         -1.2986e+07         3.06728e+08
    7.75              620713             403.773        -1.29794e+07         3.09658e+08
    7.77              614613              408.65        -1.29798e+07         3.12826e+08
    7.79              608737             413.404        -1.29867e+07         3.16221e+08
    7.81              603089             417.965        -1.30002e+07         3.19827e+08
    7.83              597670             422.267        -1.30198e+07         3.23629e+08
    7.85              592481             426.248        -1.30452e+07         3.27609e+08
    7.87              587519             429.848        -1.30761e+07         3.31747e+08
    7.89              582780             433.014        -1.31118e+07          3.3602e+08
    7.91              578256             435.697         -1.3152e+07         3.40405e+08
    7.93              573938             437.857        -1.31958e+07         3.44875e+08
    7.95              569814              439.46        -1.32428e+07         3.49402e+08
    7.97              565869             440.481        -1.32922e+07         3.53958e+08
    7.99              562086             440.901         -1.3343e+07          3.5851e+08
    8.01              558444             440.712        -1.33946e+07         3.63026e+08
    8.03              554921             439.911        -1.34459e+07         3.67473e+08
    8.05              551492             438.504        -1.34961e+07         3.71816e+08
    8.07              548132             436.505        -1.35441e+07         3.76021e+08
    8.09              544813             433.931         -1.3589e+07         3.80052e+08
    8.11              541504             430.807        -1.36298e+07         3.83875e+08
    8.13              538176             427.161        -1.36653e+07         3.87455e+08
    8.15              534798             423.025        -1.36948e+07         3.90761e+08
    8.17              531338             418.435        -1.37171e+07         3.93759e+08
    8.19              527768             413.425        -1.37313e+07         3.96421e+08
    8.21              524056             408.034        -1.37366e+07         3.98719e+08
    8.23              520174             402.299        -1.37322e+07         4.00629e+08
    8.25              516095             396.255        -1.37173e+07         4.02128e+08
    8.27              511796              389.94        -1.36912e+07         4.03199e+08
    8.29              507253             383.387        -1.36535e+07         4.03826e+08
    8.31              502448              376.63        -1.36037e+07         4.03999e+08
    8.33              497365             369.698        -1.35415e+07         4.03711e+08
    8.35              491992             362.622        -1.34667e+07         4.02958e+08
    8.37              486320             355.428        -1.33792e+07         4.01744e+08
    8.39              480345             348.143         -1.3279e+07         4.00074e+08
    8.41              474067             340.789        -1.31664e+07         3.97959e+08
    8.43              467490             333.389        -1.30417e+07         3.95413e+08
    8.45              460621             325.966        -1.29054e+07         3.92456e+08
    8.47              453474             318.537         -1.2758e+07         3.89109e+08
    8.49              446063             311.124        -1.26002e+07           3.854e+08
    8.51              438409             303.743        -1.24329e+07         3.81358e+08
    8.53              430535             296.413        -1.22568e+07         3.77017e+08
    8.55              422468             289.151        -1.20731e+07          3.7241e+08
    8.57              414236             281.973        -1.18827e+07         3.67576e+08
    8.59              405870             274.894        -1.16868e+07         3.62554e+08
    8.61              397405              267.93        -1.14865e+07         3.57385e+08
    8.63              388874             261.096         -1.1283e+07         3.52108e+08
    8.65              380313             254.405        -1.10776e+07         3.46764e+08
    8.67              371758             247.869        -1.08714e+07         3.41395e+08
    8.69              363245             241.501        -1.06656e+07          3.3604e+08
    8.71              354809             235.311        -1.04613e+07         3.30736e+08
    8.73              346483             229.308        -1.02597e+07          3.2552e+08
    8.75              338299               223.5        -1.00617e+07         3.20426e+08
    8.77              330288             217.893        -9.86828e+06         3.15484e+08
    8.79              322478             212.492        -9.68035e+06         3.10721e+08
    8.81              314893             207.301        -9.49866e+06         3.06163e+08
    8.83              307554             202.322        -9.32383e+06         3.01828e+08
    8.85              300481             197.556        -9.15643e+06         2.97735e+08
    8.87              293688             193.002        -8.99685e+06         2.93893e+08
    8.89              287185              188.66        -8.84538e+06         2.90313e+08
    8.91              280980             184.526        -8.70221e+06         2.86996e+08
    8.93              275077             180.598        -8.56736e+06         2.83942e+08
    8.95              269474             176.873        -8.44076e+06         2.81146e+08
    8.97              264169             173.347        -8.32221e+06           2.786e+08
    8.99              259151             170.016        -8.21139e+06         2.76289e+08
    9.01              254412             166.876        -8.10789e+06         2.74199e+08
    9.03              249937             163.923        -8.01118e+06          2.7231e+08
    9.05              245709             161.152        -7.92067e+06         2.70597e+08
    9.07              241708             158.559        -7.83568e+06         2.69038e+08
    9.09              237912             156.137        -7.75545e+06         2.67603e+08
    9.11              234300             153.882         -7.6792e+06         2.66264e+08
    9.13              230846             151.786        -7.60609e+06         2.64991e+08
    9.15              227523             149.842        -7.53525e+06         2.63752e+08
    9.17              224307             148.042        -7.46581e+06         2.62515e+08
    9.19              221171             146.375        -7.39689e+06          2.6125e+08
    9.21              218088             144.831        -7.32763e+06         2.59924e+08
    9.23              215033             143.397        -7.25718e+06         2.58508e+08
    9.25              211981             142.061        -7.18474e+06         2.56972e+08
    9.27              208909             140.807        -7.10956e+06          2.5529e+08
    9.29              205795              139.62        -7.03092e+06         2.53435e+08
    9.31              202619             138.485        -6.94819e+06         2.51386e+08
    9.33              199362             137.384        -6.86081e+06         2.49122e+08
    9.35              196008               136.3        -6.76828e+06         2.46625e+08
    9.37              192545             135.216         -6.6702e+06          2.4388e+08
    9.39              188961             134.116        -6.56625e+06         2.40877e+08
    9.41              185248             132.982        -6.45618e+06         2.37606e+08
    9.43              181399             131.799        -6.33986e+06         2.34062e+08
    9.45              177412             130.552        -6.21723e+06         2.30244e+08
    9.47              173285             129.226        -6.08831e+06         2.26153e+08
    9.49              169020             127.811        -5.95323e+06         2.21793e+08
    9.51              164620             126.294        -5.81216e+06         2.17171e+08
    9.53              160093             124.667        -5.66539e+06         2.12298e+08
    9.55              155445             122.922        -5.51324e+06         2.07185e+08
    9.57              150687             121.053        -5.35612e+06         2.01849e+08
    9.59              145831             119.057        -5.19448e+06         1.96305e+08
    9.61              140890             116.931        -5.02884e+06         1.90574e+08
    9.63              135877             114.675        -4.85974e+06         1.84676e+08
    9.65              130808             112.292        -4.68775e+06         1.78633e+08
    9.67              125699             109.784         -4.5135e+06         1.72468e+08
    9.69              120566             107.156         -4.3376e+06         1.66205e+08
    9.71              115427             104.416        -4.16069e+06         1.59868e+08
    9.73              110298              101.57         -3.9834e+06         1.53483e+08
    9.75              105195             98.6288        -3.80637e+06         1.47073e+08
    9.77              100136             95.6015        -3.63023e+06         1.40663e+08
    9.79             95136.6             92.4997        -3.45557e+06         1.34276e+08
    9.81             90211.3             89.3352        -3.28297e+06         1.27937e+08
    9.83             85375.1             86.1204          -3.113e+06         1.21666e+08
    9.85             80641.5             82.8682        -2.94616e+06         1.15485e+08
    9.87             76022.9             79.5917        -2.78294e+06         1.09414e+08
    9.89             71530.8              76.304        -2.62379e+06          1.0347e+08
    9.91             67175.4             73.0183         -2.4691e+06         9.76714e+07
    9.93             62965.6             69.7474        -2.31923e+06         9.20323e+07
    9.95             58909.3             66.5038         -2.1745e+06         8.65666e+07
    9.97             55012.7             63.2996        -2.03516e+06         8.12864e+07
    9.99             51281.1             60.1462        -1.90145e+06         7.62017e+07
   10.01             47718.4             57.0545        -1.77353e+06         7.13211e+07
   10.03             44327.3             54.0344        -1.65154e+06         6.66517e+07
   10.05             41109.4             51.0952        -1.53556e+06         6.21985e+07
   10.07               38065             48.2453        -1.42565e+06         5.79655e+07
   10.09             35193.7             45.4921        -1.32182e+06         5.39548e+07
   10.11             32493.8             42.8421        -1.22403e+06         5.01673e+07
   10.13             29962.9              40.301        -1.13223e+06         4.66025e+07
   10.15             27597.7             37.8733        -1.04634e+06         4.32588e+07
   10.17             25394.2             35.5628             -966232         4.01333e+07
   10.19             23347.9              33.372             -891769         3.72224e+07
   10.21             21453.6              31.303             -822791         3.45212e+07
   10.23             19705.7             29.3565             -759118         3.20244e+07
   10.25             18098.2             27.5326             -700554         2.97257e+07
   10.27             16624.8             25.8305             -646894         2.76186e+07
   10.29             15279.1             24.2487             -597920         2.56957e+07
   10.31             14054.4             22.7846             -553409         2.39495e+07
   10.33               12944             21.4353             -513131         2.23723e+07
   10.35             11941.2              20.197             -476855         2.09558e+07
   10.37             11039.3             19.0654             -444349         1.96919e+07
   10.39             10231.5             18.0355             -415382         1.85723e+07
   10.41             9511.48             17.1021             -389726         1.75889e+07
   10.43             8872.76             16.2595             -367157         1.67333e+07
   10.45             8309.22             15.5019             -347455         1.59976e+07
   10.47             7814.88             14.8234             -330408         1.53737e+07
   10.49             7384.01             14.2181             -315808         1.48538e+07
   10.51             7011.13             13.6802             -303458         1.44304e+07
   10.53             6691.02             13.2042             -293167          1.4096e+07
   10.55              6418.7              12.785             -284753         1.38436e+07
   10.57              6189.5             12.4177             -278041         1.36663e+07
   10.59             5998.98             12.0978             -272866         1.35574e+07
   10.61             5842.98             11.8211             -269071         1.35106e+07
   10.63             5717.62             11.5838             -266507         1.35197e+07
   10.65             5619.26             11.3821             -265035         1.35788e+07
   10.67              5544.5             11.2125             -264523         1.36823e+07
   10.69             5490.21             11.0715             -264845         1.38248e+07
   10.71             5453.48             10.9558             -265885         1.40011e+07
   10.73              5431.6             10.8618             -267534         1.42063e+07
   10.75              5422.1             10.7864             -269688         1.44357e+07
   10.77             5422.72             10.7262             -272251         1.46847e+07
   10.79             5431.34             10.6779             -275134          1.4949e+07
   10.81             5446.08             10.6385             -278253         1.52244e+07
   10.83              5465.2             10.6049             -281529         1.55071e+07
   10.85             5487.11             10.5743             -284891         1.57932e+07
   10.87             5510.41             10.5441             -288269         1.60793e+07
   10.89             5533.79              10.512             -291603         1.63619e+07
   10.91             5556.13             10.4758             -294835         1.66377e+07
   10.93             5576.39             10.4338             -297911         1.69039e+07
   10.95             5593.68             10.3845             -300784         1.71575e+07
   10.97              5607.2             10.3266             -303409         1.73959e+07
   10.99             5616.28             10.2593             -305747         1.76166e+07
   11.01             5620.32              10.182             -307763         1.78174e+07
   11.03             5618.85             10.0945             -309426         1.79962e+07
   11.05             5611.47             9.99672             -310709         1.81511e+07
   11.07             5597.87             9.88908             -311590         1.82806e+07
   11.09             5577.84             9.77211             -312049         1.83831e+07
   11.11             5551.22             9.64666             -312072         1.84576e+07
   11.13             5517.95             9.51381             -311650          1.8503e+07
   11.15             5478.05             9.37486             -310775         1.85187e+07
   11.17             5431.59             9.23132             -309446         1.85041e+07
   11.19             5378.74             9.08491             -307664          1.8459e+07
   11.21             5319.71             8.93754             -305435         1.83834e+07
   11.23             5254.81              8.7913             -302769         1.82776e+07
   11.25             5184.37             8.64844             -299678          1.8142e+07
   11.27             5108.84             8.51138             -296182         1.79772e+07
   11.29             5028.68             8.38269             -292299         1.77844e+07
   11.31             4944.45             8.26506             -288055         1.75646e+07
   11.33             4856.73             8.16129             -283477         1.73191e+07
   11.35             4766.18              8.0743             -278597         1.70497e+07
   11.37              4673.5             8.00702             -273447          1.6758e+07
   11.39             4579.45             7.96242             -268065         1.64459e+07
   11.41             4484.82             7.94337             -262491         1.61157e+07
   11.43             4390.46             7.95264             -256764         1.57695e+07
   11.45             4297.22             7.99274             -250929         1.54097e+07
   11.47             4206.02             8.06585             -245030         1.50388e+07
   11.49             4117.79             8.17364             -239114         1.46594e+07
   11.51             4033.47             8.31715             -233229          1.4274e+07
   11.53             3954.03             8.49661             -227422         1.38854e+07
   11.55             3880.45             8.71133             -221741         1.34962e+07
   11.57              3813.7             8.95945             -216235         1.31092e+07
   11.59             3754.74             9.23793             -210952          1.2727e+07
   11.61             3704.55             9.54245             -205938         1.23522e+07
   11.63             3664.04             9.86737             -201240         1.19874e+07
   11.65             3634.14             10.2059             -196901         1.16351e+07
   11.67             3615.73             10.5504             -192966         1.12977e+07
   11.69             3609.62             10.8923             -189472         1.09774e+07
   11.71             3616.62             11.2231             -186460         1.06764e+07
   11.73             3637.45             11.5342             -183962         1.03965e+07
   11.75             3672.77              11.818             -182012         1.01396e+07
   11.77             3723.19              12.068             -180638         9.90721e+06
   11.79              3789.2             12.2792             -179863         9.70085e+06
   11.81             3871.25             12.4485             -179710         9.52167e+06
   11.83             3969.69             12.5746             -180194         9.37066e+06
   11.85             4084.75             12.6585             -181328         9.24859e+06
   11.87             4216.58             12.7026             -183120           9.156e+06
   11.89             4365.23             12.7109             -185574         9.09322e+06
   11.91             4530.63             12.6885             -188688         9.06033e+06
   11.93              4712.6             12.6413             -192456          9.0572e+06
   11.95             4910.85             12.5755             -196869         9.08348e+06
   11.97             5124.98             12.4972             -201910         9.13859e+06
   11.99             5354.45             12.4124             -207560         9.22173e+06
   12.01             5598.62             12.3264             -213795         9.33193e+06
   12.03             5856.76             12.2441             -220587         9.46798e+06
   12.05             6127.99             12.1694             -227901         9.62853e+06
   12.07             6411.35             12.1056             -235703         9.81204e+06
   12.09             6705.75              12.055             -243951         1.00168e+07
   12.11             7010.03             12.0195             -252602          1.0241e+07
   12.13             7322.94             11.9999             -261609         1.04827e+07
   12.15             7643.13             11.9965             -270923         1.07398e+07
   12.17             7969.19             12.0091             -280493         1.10102e+07
   12.19             8299.66             12.0369             -290264         1.12917e+07
   12.21             8633.03             12.0789             -300182          1.1582e+07
   12.23             8967.74             12.1335             -310192         1.18789e+07
   12.25             9302.22             12.1989             -320239         1.21802e+07
   12.27             9634.92             12.2732             -330267         1.24836e+07
   12.29             9964.26             12.3543             -340222          1.2787e+07
   12.31             10288.7               12.44             -350051         1.30882e+07
   12.33             10606.8              12.528             -359704         1.33853e+07
   12.35             10917.1             12.6163             -369132         1.36764e+07
   12.37             11218.2             12.7026             -378291         1.39597e+07
   12.39               11509             12.7848             -387140         1.42337e+07
   12.41             11788.2              12.861             -395642         1.44971e+07
   12.43             12054.9             12.9295             -403767         1.47485e+07
   12.45             12308.3             12.9885             -411487         1.49871e+07
   12.47             12547.5             13.0367             -418781         1.52122e+07
   12.49               12772             13.0728             -425637         1.54231e+07
   12.51             12981.5             13.0957             -432044         1.56196e+07
   12.53             13175.8             13.1049             -438002         1.58019e+07
   12.55               13355             13.0996             -443515           1.597e+07
   12.57             13519.1             13.0795             -448596         1.61246e+07
   12.59             13668.6             13.0447             -453262         1.62663e+07
   12.61             13804.1             12.9952             -457539         1.63963e+07
   12.63             13926.4             12.9314             -461459         1.65157e+07
   12.65             14036.5             12.8539             -465057          1.6626e+07
   12.67             14135.4             12.7633             -468378         1.67289e+07
   12.69             14224.4             12.6607             -471471         1.68263e+07
   12.71             14305.1             12.5471             -474386         1.69203e+07
   12.73             14378.9             12.4237             -477183         1.70128e+07
   12.75             14447.6             12.2918             -479920         1.71063e+07
   12.77             14512.9             12.1526             -482660         1.72032e+07
   12.79             14576.7             12.0077             -485467         1.73057e+07
   12.81             14640.8             11.8584             -488408         1.74163e+07
   12.83             14707.1             11.7062             -491545         1.75376e+07
   12.85             14777.5             11.5524             -494944         1.76717e+07
   12.87             14853.7             11.3985             -498667          1.7821e+07
   12.89             14937.7             11.2457             -502773         1.79876e+07
   12.91             15031.1             11.0954             -507316         1.81736e+07
   12.93             15135.5             10.9487             -512349         1.83807e+07
   12.95             15252.2             10.8067             -517916         1.86105e+07
   12.97             15382.6             10.6706             -524058         1.88645e+07
   12.99             15527.8             10.5414             -530805         1.91437e+07
   13.01             15688.7               10.42             -538184          1.9449e+07
   13.03             15865.9             10.3075             -546212         1.97807e+07
   13.05               16060             10.2047             -554898         2.01392e+07
   13.07             16271.3             10.1125             -564241         2.05242e+07
   13.09             16499.6             10.0319             -574234         2.09354e+07
   13.11             16744.8              9.9638             -584859         2.13717e+07
   13.13             17006.4              9.9091             -596090         2.18322e+07
   13.15             17283.8             9.86876             -607893         2.23152e+07
   13.17               17576             9.84371             -620225         2.28191e+07
   13.19               17882             9.83493             -633035         2.33416e+07
   13.21             18200.4              9.8434             -646266         2.38803e+07
   13.23             18529.7             9.87012             -659853         2.44327e+07
   13.25             18868.4             9.91611             -673726         2.49958e+07
   13.27             19214.7             9.98239             -687810         2.55665e+07
   13.29             19566.8               10.07             -702027         2.61416e+07
   13.31             19922.7               10.18             -716293         2.67177e+07
   13.33             20280.6             10.3135             -730524         2.72912e+07
   13.35             20638.4             10.4716             -744636         2.78586e+07
   13.37             20994.2             10.6554             -758544         2.84164e+07
   13.39             21346.3              10.866             -772164          2.8961e+07
   13.41             21692.7             11.1046             -785414          2.9489e+07
   13.43             22031.8             11.3723             -798218         2.99969e+07
   13.45             22362.2             11.6705             -810501         3.04816e+07
   13.47             22682.4             12.0001             -822196         3.09399e+07
   13.49             22991.3             12.3624             -833242         3.13692e+07
   13.51             23287.9             12.7585             -843583         3.17666e+07
   13.53             23571.6             13.1893             -853175         3.21301e+07
   13.55             23841.9             13.6558             -861978         3.24575e+07
   13.57             24098.6             14.1587             -869964         3.27472e+07
   13.59             24341.7             14.6983             -877114         3.29978e+07
   13.61             24571.6              15.275             -883416         3.32083e+07
   13.63             24788.9             15.8886             -888872         3.33781e+07
   13.65             24994.4             16.5384             -893490         3.35069e+07
   13.67             25189.2             17.2233             -897289         3.35948e+07
   13.69             25374.8             17.9418             -900297         3.36422e+07
   13.71             25552.5             18.6913             -902550           3.365e+07
   13.73             25724.2              19.469             -904094         3.36193e+07
   13.75             25891.8             20.2709             -904980         3.35515e+07
   13.77             26057.3             21.0924             -905268         3.34484e+07
   13.79             26222.9             21.9282             -905021          3.3312e+07
   13.81             26390.7             22.7719             -904309         3.31445e+07
   13.83               26563             23.6166             -903206         3.29485e+07
   13.85               26742             24.4547             -901787         3.27265e+07
   13.87             26929.8              25.278             -900128         3.24814e+07
   13.89             27128.6             26.0779             -898307          3.2216e+07
   13.91             27340.4             26.8456             -896402         3.19332e+07
   13.93             27566.8             27.5723             -894486         3.16362e+07
   13.95             27809.5             28.2493             -892630         3.13278e+07
   13.97             28069.9             28.8686             -890903          3.1011e+07
   13.99             28348.9             29.4225             -889366         3.06886e+07
   14.01             28647.5             29.9047             -888074         3.03633e+07
   14.03             28965.9             30.3095             -887078         3.00379e+07
   14.05             29304.5             30.6328             -886417         2.97147e+07
   14.07               29663             30.8718             -886126         2.93959e+07
   14.09             30040.7             31.0251             -886228         2.90836e+07
   14.11             30436.7             31.0928             -886738         2.87796e+07
   14.13             30849.7             31.0764             -887663         2.84854e+07
   14.15               31278             30.9788             -888999         2.82023e+07
   14.17             31719.7             30.8043             -890733         2.79312e+07
   14.19             32172.3              30.558             -892845          2.7673e+07
   14.21             32633.2             30.2461             -895303         2.74282e+07
   14.23             33099.7             29.8755             -898070         2.71969e+07
   14.25             33568.4             29.4536             -901100         2.69791e+07
   14.27             34036.1             28.9882             -904342         2.67746e+07
   14.29             34499.3             28.4871             -907739         2.65829e+07
   14.31             34954.5             27.9582             -911229         2.64033e+07
   14.33             35398.1              27.409             -914745         2.62351e+07
   14.35             35826.4             26.8468             -918222         2.60771e+07
   14.37             36235.9             26.2784             -921590         2.59283e+07
   14.39             36623.2             25.7101             -924782         2.57875e+07
   14.41             36985.1             25.1476             -927730         2.56534e+07
   14.43             37318.5             24.5958             -930371         2.55247e+07
   14.45             37620.7             24.0591             -932646         2.54002e+07
   14.47             37889.2             23.5412             -934500         2.52786e+07
   14.49             38122.2             23.0448             -935886         2.51587e+07
   14.51             38317.9             22.5724             -936764         2.50395e+07
   14.53             38475.4             22.1255             -937102         2.49199e+07
   14.55               38594             21.7053             -936880         2.47992e+07
   14.57             38673.5             21.3123             -936087         2.46768e+07
   14.59             38714.6             20.9465             -934722         2.45521e+07
   14.61             38718.4             20.6077             -932798         2.44251e+07
   14.63             38686.4              20.295             -930339         2.42956e+07
   14.65             38621.1             20.0075             -927382         2.41639e+07
   14.67             38525.2             19.7439             -923975         2.40307e+07
   14.69             38402.4             19.5029             -920181         2.38965e+07
   14.71             38256.5             19.2829             -916072         2.37625e+07
   14.73             38092.4             19.0825             -911736           2.363e+07
   14.75             37915.1             18.9001             -907269         2.35005e+07
   14.77             37730.3             18.7343             -902779         2.33757e+07
   14.79             37544.1             18.5838             -898385         2.32578e+07
   14.81             37363.1             18.4474             -894214         2.31488e+07
   14.83             37194.2             18.3243             -890401         2.30514e+07
   14.85             37044.7             18.2137             -887089          2.2968e+07
   14.87               36922             18.1154             -884425         2.29015e+07
   14.89             36833.8             18.0291             -882563         2.28548e+07
   14.91               36788             17.9552             -881658         2.28307e+07
   14.93             36792.3             17.8941             -881868         2.28325e+07
   14.95             36854.8             17.8467             -883349         2.28631e+07
   14.97             36983.3             17.8139             -886259         2.29257e+07
   14.99             37185.3             17.7971             -890750         2.30233e+07
   15.01             37468.5             17.7979             -896972          2.3159e+07
   15.03             37839.9             17.8178             -905066         2.33356e+07
   15.05             38306.4             17.8587             -915170         2.35559e+07
   15.07             38874.4             17.9225             -927409         2.38226e+07
   15.09             39549.8             18.0111             -941900         2.41381e+07
   15.11               40338             18.1264             -958746         2.45045e+07
   15.13             41243.7             18.2705             -978040         2.49237e+07
   15.15               42271             18.4451             -999858         2.53975e+07
   15.17             43423.2             18.6522        -1.02426e+06         2.59271e+07
   15.19             44702.9             18.8938         -1.0513e+06         2.65136e+07
   15.21             46111.8             19.1715        -1.08099e+06         2.71576e+07
   15.23             47650.6             19.4873        -1.11335e+06         2.78593e+07
   15.25             49319.3             19.8429        -1.14836e+06         2.86186e+07
   15.27             51116.8             20.2401        -1.18601e+06          2.9435e+07
   15.29               53041             20.6807        -1.22623e+06         3.03076e+07
   15.31             55088.9             21.1666        -1.26895e+06         3.12348e+07
   15.33             57256.3             21.6993        -1.31408e+06         3.22151e+07
   15.35             59538.3             22.2806        -1.36152e+06          3.3246e+07
   15.37             61928.5             22.9122        -1.41112e+06         3.43249e+07
   15.39             64419.8             23.5956        -1.46274e+06         3.54487e+07
   15.41             67004.1             24.3323        -1.51619e+06          3.6614e+07
   15.43             69672.1             25.1236        -1.57129e+06         3.78168e+07
   15.45             72413.6             25.9707        -1.62782e+06         3.90528e+07
   15.47             75217.8             26.8745        -1.68555e+06         4.03174e+07
   15.49             78072.6             27.8359        -1.74424e+06         4.16056e+07
   15.51             80965.4             28.8554        -1.80363e+06         4.29122e+07
   15.53             83882.7             29.9333        -1.86344e+06         4.42314e+07
   15.55             86810.5             31.0695        -1.92338e+06         4.55576e+07
   15.57             89734.2             32.2637        -1.98315e+06         4.68848e+07
   15.59             92638.8             33.5154        -2.04247e+06         4.82066e+07
   15.61             95508.7             34.8234          -2.101e+06         4.95167e+07
   15.63             98328.4             36.1864        -2.15844e+06         5.08089e+07
   15.65              101082             37.6026        -2.21448e+06         5.20765e+07
   15.67              103754             39.0699         -2.2688e+06         5.33133e+07
   15.69              106328             40.5856        -2.32108e+06         5.45127e+07
   15.71              108790             42.1468        -2.37103e+06         5.56685e+07
   15.73              111123               43.75        -2.41835e+06         5.67746e+07
   15.75              113315             45.3914        -2.46276e+06         5.78251e+07
   15.77              115350             47.0665        -2.50398e+06         5.88143e+07
   15.79              117216             48.7708        -2.54176e+06         5.97368e+07
   15.81              118901             50.4991        -2.57587e+06         6.05876e+07
   15.83              120393             52.2458        -2.60609e+06         6.13621e+07
   15.85              121683             54.0051        -2.63223e+06         6.20562e+07
   15.87              122761             55.7705        -2.65412e+06         6.26659e+07
   15.89              123621             57.5356        -2.67163e+06         6.31882e+07
   15.91              124257             59.2933        -2.68464e+06         6.36204e+07
   15.93              124663             61.0366        -2.69308e+06         6.39603e+07
   15.95              124837              62.758        -2.69688e+06         6.42063e+07
   15.97              124777             64.4501        -2.69603e+06         6.43577e+07
   15.99              124484              66.105        -2.69053e+06         6.44139e+07
   16.01              123959             67.7152        -2.68044e+06         6.43755e+07
   16.03              123205             69.2728        -2.66581e+06         6.42432e+07
   16.05              122227             70.7702        -2.64677e+06         6.40186e+07
   16.07              121032             72.1999        -2.62343e+06          6.3704e+07
   16.09              119627             73.5545        -2.59598e+06         6.33021e+07
   16.11              118022              74.827        -2.56458e+06         6.28163e+07
   16.13              116226             76.0104        -2.52947e+06         6.22505e+07
   16.15              114252             77.0984        -2.49089e+06         6.16091e+07
   16.17              112113             78.0851        -2.44909e+06         6.08971e+07
   16.19              109822             78.9647        -2.40436e+06         6.01199e+07
   16.21              107394             79.7324        -2.35701e+06         5.92832e+07
   16.23              104845             80.3836        -2.30735e+06         5.83934e+07
   16.25              102189             80.9145         -2.2557e+06         5.74567e+07
   16.27             99444.8             81.3218         -2.2024e+06         5.64802e+07
   16.29             96627.8             81.6029         -2.1478e+06         5.54706e+07
   16.31               93755             81.7556        -2.09223e+06         5.44352e+07
   16.33             90843.3             81.7785        -2.03606e+06         5.33811e+07
   16.35             87909.5             81.6708        -1.97962e+06         5.23156e+07
   16.37             84969.9             81.4323        -1.92325e+06          5.1246e+07
   16.39             82040.6             81.0632        -1.86728e+06         5.01794e+07
   16.41             79137.1             80.5643        -1.81203e+06         4.91229e+07
   16.43               76274              79.937        -1.75782e+06         4.80834e+07
   16.45             73465.5             79.1829        -1.70492e+06         4.70674e+07
   16.47             70724.7             78.3043        -1.65362e+06         4.60813e+07
   16.49             68063.8             77.3039        -1.60417e+06         4.51311e+07
   16.51             65494.1             76.1846         -1.5568e+06         4.42224e+07
   16.53             63025.6             74.9499        -1.51173e+06         4.33604e+07
   16.55             60667.3             73.6039        -1.46914e+06         4.25499e+07
   16.57               58427              72.151         -1.4292e+06         4.17952e+07
   16.59             56311.2             70.5964        -1.39205e+06         4.10999e+07
   16.61             54325.5             68.9458        -1.35779e+06         4.04674e+07
   16.63             52473.8             67.2061        -1.32652e+06         3.99004e+07
   16.65             50759.3             65.3849        -1.29829e+06         3.94009e+07
   16.67             49183.7             63.4909        -1.27315e+06         3.89707e+07
   16.69             47747.6              61.534        -1.25109e+06         3.86107e+07
   16.71             46450.7             59.5253        -1.23212e+06         3.83214e+07
   16.73             45291.4              57.477        -1.21619e+06         3.81027e+07
   16.75             44267.2             55.4026        -1.20324e+06         3.79541e+07
   16.77             43374.7             53.3165         -1.1932e+06         3.78745e+07
   16.79             42609.8             51.2336        -1.18596e+06         3.78623e+07
   16.81             41967.3             49.1697        -1.18141e+06         3.79155e+07
   16.83             41441.5             47.1402        -1.17942e+06         3.80317e+07
   16.85             41026.1             45.1606        -1.17983e+06          3.8208e+07
   16.87             40714.3             43.2458         -1.1825e+06         3.84413e+07
   16.89             40498.7             41.4094        -1.18725e+06          3.8728e+07
   16.91             40371.8              39.664         -1.1939e+06         3.90645e+07
   16.93             40325.6             38.0208        -1.20228e+06         3.94467e+07
   16.95               40352              36.489        -1.21217e+06         3.98705e+07
   16.97             40442.8             35.0763        -1.22341e+06         4.03315e+07
   16.99             40589.9             33.7885        -1.23579e+06         4.08254e+07
   17.01               40785             32.6298        -1.24912e+06         4.13477e+07
   17.03             41020.1             31.6024        -1.26321e+06          4.1894e+07
   17.05             41287.4             30.7073        -1.27787e+06         4.24597e+07
   17.07             41579.3             29.9438        -1.29292e+06         4.30405e+07
   17.09             41888.3             29.3101        -1.30819e+06         4.36321e+07
   17.11             42207.7             28.8033        -1.32351e+06         4.42303e+07
   17.13             42530.8             28.4193        -1.33873e+06          4.4831e+07
   17.15             42851.4             28.1535        -1.35369e+06         4.54305e+07
   17.17             43163.8             28.0004        -1.36825e+06         4.60249e+07
   17.19             43462.9             27.9541         -1.3823e+06         4.66109e+07
   17.21             43743.9              28.008        -1.39571e+06         4.71853e+07
   17.23             44002.5             28.1553        -1.40838e+06          4.7745e+07
   17.25             44235.1             28.3892        -1.42022e+06         4.82872e+07
   17.27             44438.5             28.7023        -1.43115e+06         4.88096e+07
   17.29             44609.8             29.0874         -1.4411e+06         4.93097e+07
   17.31               44747             29.5373        -1.45002e+06         4.97857e+07
   17.33             44848.3             30.0449        -1.45785e+06         5.02357e+07
   17.35             44912.3             30.6031        -1.46457e+06         5.06581e+07
   17.37             44938.3             31.2053        -1.47015e+06         5.10516e+07
   17.39             44925.9              31.845        -1.47457e+06         5.14152e+07
   17.41               44875             32.5161        -1.47782e+06         5.17478e+07
   17.43             44785.8             33.2133        -1.47991e+06         5.20488e+07
   17.45             44659.2             33.9315        -1.48085e+06         5.23176e+07
   17.47             44495.9             34.6663        -1.48064e+06         5.25538e+07
   17.49             44297.3             35.4142        -1.47932e+06         5.27571e+07
   17.51             44064.7             36.1721         -1.4769e+06         5.29274e+07
   17.53             43799.9             36.9382        -1.47342e+06         5.30648e+07
   17.55             43504.6             37.7112        -1.46891e+06         5.31693e+07
   17.57             43180.9             38.4911         -1.4634e+06          5.3241e+07
   17.59             42830.9             39.2785        -1.45694e+06         5.32804e+07
   17.61             42456.8             40.0754        -1.44957e+06         5.32877e+07
   17.63             42060.9             40.8848        -1.44132e+06         5.32635e+07
   17.65             41645.6             41.7107        -1.43225e+06         5.32081e+07
   17.67             41213.3             42.5582        -1.42239e+06         5.31222e+07
   17.69             40766.5             43.4335        -1.41179e+06         5.30063e+07
   17.71             40307.5              44.344        -1.40049e+06         5.28611e+07
   17.73             39838.9             45.2978        -1.38854e+06         5.26874e+07
   17.75             39363.2             46.3042        -1.37599e+06         5.24858e+07
   17.77             38882.8             47.3731        -1.36287e+06         5.22573e+07
   17.79             38400.1             48.5155        -1.34923e+06         5.20025e+07
   17.81             37917.7             49.7426        -1.33511e+06         5.17225e+07
   17.83             37437.9             51.0661        -1.32056e+06          5.1418e+07
   17.85             36963.1              52.498        -1.30561e+06         5.10903e+07
   17.87             36495.7             54.0503        -1.29032e+06         5.07401e+07
   17.89             36038.1             55.7348        -1.27472e+06         5.03685e+07
   17.91             35592.5             57.5625        -1.25885e+06         4.99768e+07
   17.93             35161.2             59.5438        -1.24276e+06         4.95659e+07
   17.95             34746.5             61.6879        -1.22649e+06         4.91369e+07
   17.97             34350.6             64.0027        -1.21008e+06         4.86912e+07
   17.99             33975.7             66.4939        -1.19357e+06         4.82297e+07
   18.01             33623.8             69.1654        -1.17701e+06         4.77539e+07
   18.03               33297             72.0186        -1.16043e+06         4.72647e+07
   18.05             32997.4              75.052        -1.14388e+06         4.67635e+07
   18.07             32726.9             78.2611         -1.1274e+06         4.62515e+07
   18.09             32487.2             81.6383        -1.11103e+06         4.57298e+07
   18.11             32280.2             85.1727         -1.0948e+06         4.51995e+07
   18.13             32107.4             88.8498        -1.07876e+06         4.46618e+07
   18.15             31970.5              92.652        -1.06295e+06         4.41179e+07
   18.17             31870.7             96.5584        -1.04739e+06         4.35686e+07
   18.19             31809.5             100.545        -1.03214e+06         4.30151e+07
   18.21             31787.8             104.585        -1.01721e+06         4.24583e+07
   18.23             31806.7             108.651        -1.00264e+06          4.1899e+07
   18.25               31867             112.711             -988464          4.1338e+07
   18.27             31969.2             116.735             -974703         4.07762e+07
   18.29             32113.9             120.691             -961385         4.02141e+07
   18.31             32301.3             124.547             -948531         3.96523e+07
   18.33             32531.4             128.272             -936161         3.90915e+07
   18.35             32804.3             131.837             -924292          3.8532e+07
   18.37             33119.6             135.214             -912938         3.79742e+07
   18.39             33476.9             138.379             -902112         3.74185e+07
   18.41             33875.4             141.309             -891821          3.6865e+07
   18.43             34314.6             143.985             -882072         3.63141e+07
   18.45             34793.4             146.392             -872868         3.57658e+07
   18.47             35310.7             148.515             -864211         3.52203e+07
   18.49             35865.4             150.347             -856100         3.46776e+07
   18.51             36456.1              151.88             -848531         3.41379e+07
   18.53             37081.4             153.111             -841499         3.36009e+07
   18.55             37739.9              154.04             -834996         3.30669e+07
   18.57             38429.9              154.67             -829014         3.25358e+07
   18.59             39149.9             155.004             -823542         3.20076e+07
   18.61             39898.3             155.049             -818569         3.14822e+07
   18.63             40673.2             154.813             -814081         3.09597e+07
   18.65             41473.2             154.306             -810065         3.04402e+07
   18.67             42296.4              153.54             -806507         2.99236e+07
   18.69             43141.2             152.525             -803392         2.94102e+07
   18.71             44005.8             151.277             -800704         2.88999e+07
   18.73             44888.8             149.807             -798426          2.8393e+07
   18.75             45788.3              148.13             -796544         2.78896e+07
   18.77             46702.7             146.262             -795039           2.739e+07
   18.79             47630.4             144.215             -793897         2.68944e+07
   18.81             48569.7             142.007             -793098         2.64032e+07
   18.83             49518.9             139.651             -792627         2.59167e+07
   18.85             50476.3             137.164             -792465         2.54353e+07
   18.87             51440.2             134.559             -792595         2.49594e+07
   18.89             52408.7             131.851             -792998         2.44895e+07
   18.91             53379.9             129.056             -793655         2.40259e+07
   18.93             54351.8             126.188             -794546         2.35692e+07
   18.95             55322.3             123.261             -795651         2.31199e+07
   18.97             56289.1             120.288             -796947         2.26784e+07
   18.99             57249.7             117.284             -798412         2.22453e+07
   19.01             58201.7             114.261             -800022         2.18211e+07
   19.03             59142.1             111.233             -801752         2.14062e+07
   19.05             60068.1             108.211             -803574          2.1001e+07
   19.07             60976.6             105.207             -805461         2.06061e+07
   19.09             61864.1             102.232             -807383         2.02218e+07
   19.11             62727.1             99.2976             -809308         1.98484e+07
   19.13             63561.9             96.4128             -811203         1.94863e+07
   19.15             64364.5             93.5873             -813034         1.91358e+07
   19.17               65131             90.8299             -814765         1.87969e+07
   19.19             65857.1             88.1484             -816359           1.847e+07
   19.21             66538.5             85.5503             -817777         1.81551e+07
   19.23             67170.8              83.042             -818981         1.78522e+07
   19.25             67749.5             80.6294             -819930         1.75613e+07
   19.27             68270.3             78.3175             -820584         1.72823e+07
   19.29             68728.7             76.1106             -820903         1.70151e+07
   19.31             69120.3             74.0123             -820847         1.67594e+07
   19.33             69441.1             72.0252             -820376          1.6515e+07
   19.35               69687             70.1516             -819452         1.62816e+07
   19.37             69854.3             68.3926             -818039         1.60588e+07
   19.39             69939.4             66.7489             -816102         1.58461e+07
   19.41             69939.1             65.2206             -813607         1.56432e+07
   19.43             69850.8             63.8069             -810526         1.54497e+07
   19.45               69672             62.5067             -806831         1.52648e+07
   19.47             69400.9             61.3183             -802500         1.50883e+07
   19.49             69036.1             60.2393             -797514         1.49196e+07
   19.51             68576.7             59.2674             -791858         1.47581e+07
   19.53             68022.4             58.3993             -785521         1.46035e+07
   19.55             67373.4              57.632             -778499         1.44552e+07
   19.57             66630.7             56.9619             -770792         1.43127e+07
   19.59             65795.8             56.3854             -762404         1.41758e+07
   19.61             64870.6             55.8986             -753347         1.40441e+07
   19.63             63857.9             55.4977             -743635         1.39172e+07
   19.65             62760.8             55.1789             -733290         1.37949e+07
   19.67             61583.2             54.9384             -722339         1.36771e+07
   19.69             60329.3             54.7724             -710814         1.35637e+07
   19.71             59003.9             54.6773             -698750         1.34546e+07
   19.73             57612.4             54.6497             -686189         1.33499e+07
   19.75             56160.2             54.6861             -673177         1.32497e+07
   19.77             54653.4             54.7834             -659762         1.31542e+07
   19.79             53098.3             54.9386             -645998         1.30637e+07
   19.81             51501.4             55.1487             -631941         1.29785e+07
   19.83             49869.4             55.4109             -617648          1.2899e+07
   19.85             48209.1             55.7225             -603180         1.28256e+07
   19.87             46527.3             56.0808             -588598         1.27588e+07
   19.89               44831             56.4829             -573964         1.26991e+07
   19.91             43126.9             56.9261             -559341         1.26472e+07
   19.93             41421.8             57.4071             -544789         1.26035e+07
   19.95             39722.1             57.9226             -530371         1.25687e+07
   19.97               38034             58.4688             -516145         1.25433e+07
   19.99             36363.6             59.0415             -502167         1.25278e+07
