## w(eV)         sigma(Sm^-1)     kappa(W(mK)^-1)        L12/e(Am^-1)      L22/e^2(Wm^-1)
    0.01         1.76974e+06             1227.55        -2.80347e+07         5.60389e+08
    0.03         1.77028e+06             1229.16         -2.8045e+07         5.60736e+08
    0.05         1.77133e+06              1232.4        -2.80656e+07         5.61428e+08
    0.07          1.7729e+06             1237.23        -2.80961e+07         5.62461e+08
    0.09         1.77497e+06             1243.64        -2.81365e+07         5.63829e+08
    0.11         1.77752e+06             1251.61        -2.81865e+07         5.65526e+08
    0.13         1.78053e+06             1261.11        -2.82457e+07         5.67546e+08
    0.15           1.784e+06             1272.08        -2.83139e+07         5.69879e+08
    0.17          1.7879e+06             1284.49         -2.8391e+07          5.7252e+08
    0.19         1.79224e+06             1298.28        -2.84769e+07         5.75459e+08
    0.21         1.79701e+06             1313.36        -2.85715e+07         5.78689e+08
    0.23         1.80222e+06             1329.68        -2.86747e+07         5.82202e+08
    0.25         1.80785e+06             1347.13        -2.87866e+07         5.85989e+08
    0.27         1.81391e+06              1365.6         -2.8907e+07         5.90037e+08
    0.29         1.82038e+06                1385        -2.90357e+07         5.94333e+08
    0.31         1.82724e+06             1405.19        -2.91723e+07         5.98859e+08
    0.33         1.83442e+06             1426.03         -2.9316e+07         6.03592e+08
    0.35         1.84185e+06             1447.38        -2.94657e+07         6.08503e+08
    0.37         1.84944e+06             1469.08        -2.96201e+07         6.13557e+08
    0.39         1.85703e+06             1490.96        -2.97772e+07         6.18713e+08
    0.41         1.86447e+06             1512.85        -2.99345e+07         6.23921e+08
    0.43         1.87154e+06             1534.58        -3.00892e+07         6.29126e+08
    0.45         1.87801e+06             1555.95         -3.0238e+07         6.34263e+08
    0.47         1.88363e+06             1576.78        -3.03772e+07         6.39266e+08
    0.49          1.8881e+06             1596.87        -3.05029e+07          6.4406e+08
    0.51         1.89116e+06             1616.05        -3.06109e+07          6.4857e+08
    0.53          1.8925e+06             1634.12         -3.0697e+07          6.5272e+08
    0.55         1.89185e+06             1650.91        -3.07571e+07         6.56434e+08
    0.57         1.88896e+06             1666.25        -3.07875e+07         6.59642e+08
    0.59         1.88363e+06             1679.99        -3.07848e+07         6.62278e+08
    0.61         1.87566e+06             1691.98        -3.07463e+07         6.64286e+08
    0.63         1.86495e+06             1702.12        -3.06698e+07          6.6562e+08
    0.65         1.85145e+06              1710.3         -3.0554e+07         6.66247e+08
    0.67         1.83515e+06             1716.48        -3.03985e+07         6.66146e+08
    0.69         1.81611e+06              1720.6        -3.02036e+07          6.6531e+08
    0.71         1.79447e+06             1722.67        -2.99704e+07         6.63745e+08
    0.73         1.77038e+06             1722.69        -2.97008e+07          6.6147e+08
    0.75         1.74408e+06             1720.72        -2.93972e+07         6.58513e+08
    0.77         1.71579e+06             1716.83        -2.90627e+07         6.54912e+08
    0.79         1.68581e+06              1711.1        -2.87003e+07         6.50712e+08
    0.81         1.65439e+06             1703.65        -2.83138e+07         6.45962e+08
    0.83         1.62184e+06             1694.59        -2.79066e+07         6.40714e+08
    0.85         1.58842e+06             1684.05        -2.74822e+07          6.3502e+08
    0.87          1.5544e+06             1672.16        -2.70442e+07         6.28933e+08
    0.89         1.52003e+06             1659.06        -2.65956e+07         6.22503e+08
    0.91         1.48553e+06             1644.88        -2.61395e+07         6.15774e+08
    0.93          1.4511e+06             1629.76        -2.56784e+07          6.0879e+08
    0.95         1.41691e+06             1613.82        -2.52146e+07         6.01588e+08
    0.97         1.38311e+06             1597.19        -2.47502e+07         5.94203e+08
    0.99         1.34982e+06             1579.96        -2.42869e+07         5.86661e+08
    1.01         1.31714e+06             1562.25         -2.3826e+07         5.78988e+08
    1.03         1.28516e+06             1544.15        -2.33687e+07         5.71204e+08
    1.05         1.25393e+06             1525.74        -2.29158e+07         5.63327e+08
    1.07         1.22351e+06             1507.11        -2.24682e+07         5.55373e+08
    1.09         1.19392e+06             1488.31        -2.20265e+07         5.47354e+08
    1.11          1.1652e+06             1469.43        -2.15911e+07         5.39283e+08
    1.13         1.13736e+06             1450.52        -2.11624e+07         5.31174e+08
    1.15         1.11041e+06             1431.65        -2.07411e+07         5.23041e+08
    1.17         1.08436e+06             1412.87        -2.03273e+07         5.14899e+08
    1.19         1.05922e+06             1394.24        -1.99217e+07         5.06765e+08
    1.21           1.035e+06             1375.83        -1.95248e+07          4.9866e+08
    1.23          1.0117e+06             1357.69        -1.91369e+07         4.90605e+08
    1.25              989322              1339.9        -1.87589e+07         4.82625e+08
    1.27              967878             1322.52        -1.83912e+07         4.74746e+08
    1.29              947373             1305.61        -1.80346e+07         4.66996e+08
    1.31              927813             1289.24        -1.76896e+07         4.59402e+08
    1.33              909205             1273.48        -1.73571e+07         4.51992e+08
    1.35              891554             1258.38        -1.70375e+07         4.44794e+08
    1.37              874864             1244.01        -1.67315e+07         4.37834e+08
    1.39              859139             1230.42        -1.64397e+07         4.31135e+08
    1.41              844377             1217.65        -1.61623e+07         4.24717e+08
    1.43              830579             1205.74        -1.58999e+07         4.18597e+08
    1.45              817739              1194.7        -1.56526e+07         4.12787e+08
    1.47              805851             1184.56        -1.54204e+07         4.07295e+08
    1.49              794904             1175.32        -1.52035e+07         4.02125e+08
    1.51              784884             1166.96        -1.50016e+07         3.97275e+08
    1.53              775776             1159.48        -1.48144e+07         3.92739e+08
    1.55              767560             1152.84        -1.46416e+07         3.88507e+08
    1.57              760212             1147.01        -1.44826e+07         3.84564e+08
    1.59              753707             1141.95        -1.43369e+07         3.80893e+08
    1.61              748016             1137.61        -1.42036e+07         3.77473e+08
    1.63              743106             1133.94        -1.40821e+07          3.7428e+08
    1.65              738942              1130.9        -1.39713e+07         3.71291e+08
    1.67              735486             1128.43        -1.38704e+07         3.68479e+08
    1.69              732696             1126.51        -1.37784e+07         3.65819e+08
    1.71              730528             1125.08        -1.36941e+07         3.63284e+08
    1.73              728934             1124.13        -1.36165e+07         3.60849e+08
    1.75              727861             1123.64        -1.35445e+07         3.58491e+08
    1.77              727254              1123.6        -1.34769e+07         3.56185e+08
    1.79              727054             1124.01        -1.34125e+07         3.53909e+08
    1.81              727197             1124.89        -1.33499e+07         3.51642e+08
    1.83              727615             1126.24         -1.3288e+07         3.49363e+08
    1.85              728237              1128.1        -1.32254e+07         3.47052e+08
    1.87              728990             1130.49        -1.31607e+07         3.44689e+08
    1.89              729796             1133.44        -1.30925e+07         3.42254e+08
    1.91              730579             1136.98        -1.30196e+07          3.3973e+08
    1.93              731263             1141.11        -1.29405e+07         3.37098e+08
    1.95              731774             1145.86        -1.28541e+07         3.34341e+08
    1.97              732045             1151.22        -1.27592e+07         3.31444e+08
    1.99              732012             1157.19        -1.26548e+07         3.28396e+08
    2.01              731622             1163.75        -1.25402e+07         3.25187e+08
    2.03              730831             1170.84        -1.24149e+07         3.21812e+08
    2.05              729608             1178.42        -1.22785e+07         3.18268e+08
    2.07              727929             1186.41        -1.21312e+07         3.14561e+08
    2.09              725786             1194.72        -1.19732e+07         3.10698e+08
    2.11              723176             1203.25         -1.1805e+07         3.06691e+08
    2.13              720107             1211.89        -1.16276e+07         3.02558e+08
    2.15              716593              1220.5         -1.1442e+07         2.98318e+08
    2.17              712651             1228.95        -1.12494e+07         2.93995e+08
    2.19              708300             1237.08        -1.10511e+07         2.89614e+08
    2.21              703558             1244.75        -1.08486e+07         2.85199e+08
    2.23              698440             1251.82        -1.06433e+07         2.80777e+08
    2.25              692959             1258.13        -1.04367e+07         2.76373e+08
    2.27              687119             1263.54        -1.02301e+07         2.72009e+08
    2.29              680923             1267.94        -1.00249e+07         2.67707e+08
    2.31              674367              1271.2        -9.82226e+06         2.63486e+08
    2.33              667446             1273.22        -9.62319e+06         2.59362e+08
    2.35              660153             1273.94        -9.42863e+06         2.55348e+08
    2.37              652479             1273.28        -9.23936e+06         2.51454e+08
    2.39              644422             1271.23          -9.056e+06          2.4769e+08
    2.41              635981             1267.77        -8.87906e+06         2.44061e+08
    2.43              627162              1262.9        -8.70891e+06         2.40571e+08
    2.45              617979             1256.67        -8.54581e+06         2.37225e+08
    2.47              608455             1249.14        -8.38994e+06         2.34022e+08
    2.49              598618             1240.38        -8.24139e+06         2.30967e+08
    2.51              588508             1230.49        -8.10018e+06         2.28058e+08
    2.53              578169             1219.59         -7.9663e+06         2.25298e+08
    2.55              567653             1207.78         -7.8397e+06         2.22688e+08
    2.57              557013             1195.21        -7.72029e+06          2.2023e+08
    2.59              546309             1182.01        -7.60799e+06         2.17925e+08
    2.61              535597             1168.33         -7.5027e+06         2.15777e+08
    2.63              524934              1154.3        -7.40432e+06         2.13789e+08
    2.65              514376             1140.04        -7.31274e+06         2.11962e+08
    2.67              503973              1125.7        -7.22788e+06         2.10301e+08
    2.69              493773             1111.39        -7.14963e+06         2.08808e+08
    2.71              483816              1097.2        -7.07789e+06         2.07485e+08
    2.73              474139             1083.25        -7.01256e+06         2.06335e+08
    2.75              464772              1069.6        -6.95352e+06         2.05358e+08
    2.77              455742             1056.33        -6.90066e+06         2.04555e+08
    2.79              447067             1043.48        -6.85383e+06         2.03925e+08
    2.81              438761              1031.1        -6.81288e+06         2.03466e+08
    2.83              430836             1019.22        -6.77763e+06         2.03174e+08
    2.85              423296             1007.84        -6.74789e+06         2.03045e+08
    2.87              416143             996.971        -6.72344e+06         2.03073e+08
    2.89              409374             986.602        -6.70401e+06         2.03249e+08
    2.91              402986             976.715        -6.68931e+06         2.03565e+08
    2.93              396969             967.282        -6.67904e+06         2.04008e+08
    2.95              391314             958.268        -6.67284e+06         2.04567e+08
    2.97              386007             949.633        -6.67032e+06         2.05226e+08
    2.99              381036             941.333         -6.6711e+06         2.05971e+08
    3.01              376385             933.321        -6.67473e+06         2.06784e+08
    3.03              372038              925.55        -6.68078e+06         2.07648e+08
    3.05              367978             917.974        -6.68881e+06         2.08546e+08
    3.07              364188              910.55        -6.69838e+06         2.09459e+08
    3.09              360653              903.24        -6.70907e+06         2.10372e+08
    3.11              357357             896.013         -6.7205e+06         2.11268e+08
    3.13              354286             888.844        -6.73234e+06         2.12134e+08
    3.15              351428             881.718        -6.74433e+06         2.12959e+08
    3.17              348771             874.629        -6.75626e+06         2.13735e+08
    3.19              346309             867.583        -6.76804e+06         2.14458e+08
    3.21              344036             860.592        -6.77963e+06         2.15127e+08
    3.23              341949              853.68        -6.79113e+06         2.15744e+08
    3.25              340047             846.877        -6.80269e+06         2.16316e+08
    3.27              338333             840.221        -6.81458e+06         2.16853e+08
    3.29              336810             833.753        -6.82712e+06         2.17369e+08
    3.31              335487             827.519        -6.84072e+06         2.17878e+08
    3.33              334370             821.566        -6.85581e+06         2.18398e+08
    3.35              333469             815.938        -6.87288e+06         2.18947e+08
    3.37              332795             810.679        -6.89243e+06         2.19544e+08
    3.39              332359             805.827        -6.91496e+06         2.20208e+08
    3.41              332171             801.418        -6.94097e+06         2.20957e+08
    3.43              332244             797.476        -6.97094e+06         2.21807e+08
    3.45              332588             794.023        -7.00531e+06         2.22772e+08
    3.47              333215             791.069        -7.04449e+06         2.23867e+08
    3.49              334135             788.618        -7.08884e+06         2.25101e+08
    3.51              335357             786.665        -7.13871e+06         2.26483e+08
    3.53              336892             785.197        -7.19435e+06         2.28019e+08
    3.55              338747             784.194          -7.256e+06         2.29713e+08
    3.57              340931             783.626        -7.32384e+06         2.31565e+08
    3.59              343451             783.458        -7.39803e+06         2.33574e+08
    3.61              346313             783.649        -7.47864e+06         2.35738e+08
    3.63              349524              784.15        -7.56574e+06         2.38051e+08
    3.65              353089             784.908        -7.65934e+06         2.40506e+08
    3.67              357012             785.867        -7.75941e+06         2.43093e+08
    3.69              361297             786.963         -7.8659e+06         2.45802e+08
    3.71              365945             788.131        -7.97868e+06          2.4862e+08
    3.73              370960             789.303        -8.09764e+06         2.51535e+08
    3.75              376339             790.409        -8.22258e+06         2.54532e+08
    3.77              382082             791.379        -8.35331e+06         2.57594e+08
    3.79              388186             792.143        -8.48957e+06         2.60707e+08
    3.81              394644             792.633        -8.63109e+06         2.63855e+08
    3.83              401450             792.784        -8.77756e+06         2.67021e+08
    3.85              408591             792.539        -8.92862e+06         2.70189e+08
    3.87              416055             791.846         -9.0839e+06         2.73346e+08
    3.89              423822             790.664        -9.24297e+06         2.76478e+08
    3.91              431871             788.961        -9.40535e+06         2.79571e+08
    3.93              440173             786.716        -9.57052e+06         2.82616e+08
    3.95              448694             783.921        -9.73785e+06           2.856e+08
    3.97              457393             780.578        -9.90665e+06         2.88513e+08
    3.99              466222             776.702        -1.00761e+07         2.91346e+08
    4.01              475123             772.315        -1.02453e+07         2.94086e+08
    4.03              484029             767.446         -1.0413e+07          2.9672e+08
    4.05              492865              762.13        -1.05782e+07         2.99234e+08
    4.07              501545             756.403        -1.07393e+07         3.01609e+08
    4.09              509976             750.303        -1.08947e+07         3.03822e+08
    4.11              518055             743.863        -1.10426e+07         3.05848e+08
    4.13              525674             737.114        -1.11813e+07         3.07657e+08
    4.15              532721             730.078        -1.13085e+07         3.09218e+08
    4.17              539080             722.775        -1.14223e+07         3.10493e+08
    4.19              544641             715.215        -1.15206e+07         3.11447e+08
    4.21              549297             707.404        -1.16014e+07         3.12043e+08
    4.23              552949             699.341        -1.16629e+07         3.12245e+08
    4.25              555516             691.025        -1.17033e+07         3.12022e+08
    4.27              556929             682.452        -1.17214e+07         3.11346e+08
    4.29              557141             673.616        -1.17163e+07         3.10197e+08
    4.31              556126             664.517        -1.16872e+07         3.08564e+08
    4.33              553883             655.159        -1.16343e+07         3.06442e+08
    4.35              550433             645.549        -1.15577e+07         3.03837e+08
    4.37              545819             635.704        -1.14583e+07         3.00765e+08
    4.39              540107             625.644        -1.13374e+07          2.9725e+08
    4.41              533378             615.398        -1.11964e+07         2.93326e+08
    4.43              525730             605.001        -1.10373e+07         2.89031e+08
    4.45              517270             594.492        -1.08621e+07         2.84411e+08
    4.47              508114             583.915        -1.06733e+07         2.79514e+08
    4.49              498379             573.316         -1.0473e+07         2.74392e+08
    4.51              488185              562.74        -1.02637e+07         2.69096e+08
    4.53              477644             552.234        -1.00477e+07         2.63677e+08
    4.55              466867             541.842        -9.82714e+06         2.58183e+08
    4.57              455954             531.604        -9.60413e+06         2.52659e+08
    4.59              444998             521.558        -9.38053e+06         2.47149e+08
    4.61              434081             511.737        -9.15801e+06         2.41689e+08
    4.63              423275             502.171        -8.93807e+06         2.36312e+08
    4.65              412643             492.885        -8.72199e+06         2.31048e+08
    4.67              402236             483.898        -8.51084e+06          2.2592e+08
    4.69              392098             475.228        -8.30552e+06         2.20949e+08
    4.71              382264             466.886        -8.10676e+06         2.16151e+08
    4.73              372761             458.883        -7.91513e+06         2.11539e+08
    4.75              363610             451.224        -7.73105e+06         2.07123e+08
    4.77              354824             443.913        -7.55483e+06         2.02909e+08
    4.79              346414              436.95        -7.38668e+06         1.98902e+08
    4.81              338384             430.334        -7.22671e+06         1.95104e+08
    4.83              330736             424.062        -7.07495e+06         1.91517e+08
    4.85              323468             418.129        -6.93139e+06         1.88138e+08
    4.87              316577             412.527        -6.79593e+06         1.84967e+08
    4.89              310056             407.247        -6.66846e+06            1.82e+08
    4.91              303899             402.281        -6.54884e+06         1.79232e+08
    4.93              298097             397.616        -6.43687e+06          1.7666e+08
    4.95              292639             393.241        -6.33237e+06         1.74278e+08
    4.97              287518             389.143        -6.23512e+06         1.72079e+08
    4.99              282721             385.308        -6.14489e+06          1.7006e+08
    5.01              278239             381.723        -6.06147e+06         1.68212e+08
    5.03              274061             378.372        -5.98462e+06         1.66529e+08
    5.05              270176             375.243        -5.91411e+06         1.65007e+08
    5.07              266575              372.32        -5.84971e+06         1.63637e+08
    5.09              263246             369.592         -5.7912e+06         1.62414e+08
    5.11              260179             367.046        -5.73833e+06         1.61332e+08
    5.13              257366             364.671        -5.69091e+06         1.60384e+08
    5.15              254796             362.455         -5.6487e+06         1.59565e+08
    5.17              252459             360.388        -5.61149e+06         1.58869e+08
    5.19              250347             358.463        -5.57907e+06          1.5829e+08
    5.21              248451             356.671        -5.55123e+06         1.57822e+08
    5.23              246761             355.005        -5.52776e+06         1.57459e+08
    5.25              245269             353.458        -5.50844e+06         1.57196e+08
    5.27              243967             352.023        -5.49307e+06         1.57028e+08
    5.29              242847             350.696        -5.48146e+06         1.56947e+08
    5.31              241901              349.47        -5.47339e+06          1.5695e+08
    5.33              241122             348.343        -5.46868e+06          1.5703e+08
    5.35              240502             347.308        -5.46715e+06         1.57182e+08
    5.37              240035             346.364        -5.46863e+06         1.57402e+08
    5.39              239716             345.508        -5.47298e+06         1.57685e+08
    5.41              239541             344.738        -5.48008e+06         1.58028e+08
    5.43              239504             344.056        -5.48984e+06          1.5843e+08
    5.45              239605             343.464         -5.5022e+06         1.58888e+08
    5.47              239841             342.964        -5.51714e+06         1.59403e+08
    5.49              240212             342.564        -5.53469e+06         1.59976e+08
    5.51              240720             342.269         -5.5549e+06          1.6061e+08
    5.53              241367              342.09        -5.57787e+06         1.61309e+08
    5.55              242156             342.037        -5.60375e+06         1.62078e+08
    5.57              243093             342.122        -5.63269e+06         1.62925e+08
    5.59              244184             342.359        -5.66492e+06         1.63855e+08
    5.61              245434             342.762        -5.70065e+06         1.64879e+08
    5.63              246851             343.345        -5.74014e+06         1.66004e+08
    5.65              248444             344.123        -5.78365e+06          1.6724e+08
    5.67              250221             345.111        -5.83144e+06         1.68596e+08
    5.69              252190             346.323        -5.88382e+06         1.70083e+08
    5.71              254361             347.772        -5.94105e+06         1.71709e+08
    5.73              256743             349.471        -6.00341e+06         1.73484e+08
    5.75              259346             351.432        -6.07119e+06         1.75417e+08
    5.77              262178             353.666        -6.14466e+06         1.77516e+08
    5.79              265249             356.181        -6.22409e+06         1.79791e+08
    5.81              268569             358.987        -6.30973e+06         1.82248e+08
    5.83              272147              362.09        -6.40184e+06         1.84895e+08
    5.85              275993             365.498        -6.50065e+06         1.87739e+08
    5.87              280115             369.214         -6.6064e+06         1.90786e+08
    5.89              284524             373.244         -6.7193e+06         1.94041e+08
    5.91              289228              377.59        -6.83957e+06          1.9751e+08
    5.93              294237             382.254        -6.96738e+06         2.01196e+08
    5.95              299558             387.238        -7.10292e+06         2.05104e+08
    5.97              305201              392.54        -7.24633e+06         2.09235e+08
    5.99              311173              398.16        -7.39774e+06          2.1359e+08
    6.01              317483             404.094        -7.55724e+06          2.1817e+08
    6.03              324136             410.338         -7.7249e+06         2.22974e+08
    6.05              331139             416.885        -7.90074e+06         2.27998e+08
    6.07              338498             423.727        -8.08474e+06         2.33238e+08
    6.09              346216             430.853        -8.27685e+06         2.38687e+08
    6.11              354297             438.251        -8.47695e+06         2.44337e+08
    6.13              362744             445.905        -8.68488e+06         2.50177e+08
    6.15              371556             453.798        -8.90044e+06         2.56195e+08
    6.17              380734             461.909        -9.12335e+06         2.62376e+08
    6.19              390278             470.218        -9.35333e+06         2.68705e+08
    6.21              400186             478.701        -9.59004e+06         2.75164e+08
    6.23              410455             487.331        -9.83312e+06         2.81735e+08
    6.25              421082             496.083        -1.00822e+07         2.88399e+08
    6.27              432067             504.931        -1.03369e+07         2.95138e+08
    6.29              443406             513.847         -1.0597e+07         3.01936e+08
    6.31              455099             522.807         -1.0862e+07         3.08776e+08
    6.33              467145             531.786        -1.11319e+07         3.15645e+08
    6.35              479547             540.765        -1.14063e+07         3.22532e+08
    6.37              492304             549.724        -1.16851e+07          3.2943e+08
    6.39              505421             558.648        -1.19684e+07         3.36335e+08
    6.41              518900             567.526        -1.22561e+07         3.43245e+08
    6.43              532742             576.351        -1.25483e+07         3.50163e+08
    6.45              546948             585.116         -1.2845e+07          3.5709e+08
    6.47              561514             593.821        -1.31462e+07         3.64032e+08
    6.49              576430             602.464        -1.34519e+07         3.70992e+08
    6.51              591682             611.044        -1.37619e+07         3.77971e+08
    6.53              607243              619.56        -1.40758e+07         3.84968e+08
    6.55              623079             628.006        -1.43932e+07         3.91976e+08
    6.57              639142             636.373        -1.47131e+07         3.98983e+08
    6.59              655370             644.644        -1.50345e+07         4.05969e+08
    6.61              671684             652.794        -1.53559e+07         4.12904e+08
    6.63              687994              660.79        -1.56755e+07         4.19752e+08
    6.65              704188             668.588         -1.5991e+07         4.26467e+08
    6.67              720145             676.134        -1.63001e+07         4.32994e+08
    6.69              735727             683.366        -1.65998e+07         4.39271e+08
    6.71              750787             690.213        -1.68873e+07         4.45229e+08
    6.73              765169             696.596        -1.71593e+07         4.50797e+08
    6.75              778715             702.437        -1.74126e+07         4.55902e+08
    6.77              791270             707.653         -1.7644e+07          4.6047e+08
    6.79              802685             712.168        -1.78505e+07         4.64435e+08
    6.81              812827             715.914        -1.80295e+07         4.67737e+08
    6.83              821581              718.83        -1.81787e+07         4.70326e+08
    6.85              828856             720.875        -1.82964e+07         4.72168e+08
    6.87              834592             722.021        -1.83815e+07         4.73242e+08
    6.89              838758             722.263        -1.84336e+07         4.73543e+08
    6.91              841359             721.613        -1.84532e+07         4.73085e+08
    6.93              842432             720.104        -1.84411e+07         4.71897e+08
    6.95              842045             717.787         -1.8399e+07         4.70022e+08
    6.97              840294             714.729        -1.83292e+07         4.67519e+08
    6.99              837299             711.009        -1.82343e+07         4.64453e+08
    7.01              833196             706.716        -1.81173e+07         4.60899e+08
    7.03              828131             701.943        -1.79815e+07         4.56936e+08
    7.05              822257             696.782        -1.78301e+07         4.52643e+08
    7.07              815724             691.325        -1.76664e+07         4.48096e+08
    7.09              808674             685.656        -1.74932e+07         4.43367e+08
    7.11              801238             679.849        -1.73135e+07         4.38522e+08
    7.13              793530             673.968        -1.71296e+07         4.33616e+08
    7.15              785644             668.064        -1.69434e+07         4.28695e+08
    7.17              777655             662.174        -1.67566e+07         4.23796e+08
    7.19              769614             656.322        -1.65702e+07         4.18942e+08
    7.21              761551              650.52        -1.63849e+07          4.1415e+08
    7.23              753475             644.766        -1.62008e+07         4.09422e+08
    7.25              745377             639.049        -1.60178e+07         4.04756e+08
    7.27              737231              633.35        -1.58355e+07         4.00139e+08
    7.29              728998             627.641        -1.56529e+07         3.95554e+08
    7.31              720630             621.894        -1.54692e+07         3.90979e+08
    7.33              712075             616.074        -1.52834e+07         3.86392e+08
    7.35              703279             610.149        -1.50943e+07         3.81767e+08
    7.37              694192             604.086         -1.4901e+07         3.77081e+08
    7.39              684770             597.858        -1.47026e+07         3.72314e+08
    7.41              674979             591.441        -1.44984e+07          3.6745e+08
    7.43              664800             584.816        -1.42879e+07         3.62479e+08
    7.45              654226             577.971        -1.40711e+07         3.57395e+08
    7.47              643265             570.901         -1.3848e+07         3.52199e+08
    7.49              631943             563.607        -1.36191e+07         3.46899e+08
    7.51              620296             556.095        -1.33851e+07         3.41509e+08
    7.53              608375             548.381        -1.31468e+07         3.36047e+08
    7.55              596239             540.482        -1.29055e+07         3.30537e+08
    7.57              583956             532.423        -1.26623e+07         3.25003e+08
    7.59              571596             524.233        -1.24187e+07         3.19476e+08
    7.61              559236             515.943        -1.21762e+07         3.13987e+08
    7.63              546948              507.59         -1.1936e+07         3.08565e+08
    7.65              534804              499.21        -1.16997e+07         3.03243e+08
    7.67              522872             490.842        -1.14686e+07          2.9805e+08
    7.69              511215             482.525        -1.12439e+07         2.93015e+08
    7.71              499889             474.298        -1.10268e+07         2.88165e+08
    7.73              488945             466.198        -1.08183e+07         2.83526e+08
    7.75              478426             458.263        -1.06192e+07         2.79119e+08
    7.77              468370             450.526        -1.04305e+07         2.74964e+08
    7.79              458807             443.019        -1.02527e+07         2.71081e+08
    7.81              449762              435.77        -1.00865e+07         2.67484e+08
    7.83              441256             428.804        -9.93223e+06         2.64186e+08
    7.85              433302             422.143        -9.79032e+06           2.612e+08
    7.87              425912             415.805        -9.66105e+06         2.58534e+08
    7.89              419092             409.803        -9.54463e+06         2.56196e+08
    7.91              412846             404.148        -9.44119e+06         2.54192e+08
    7.93              407173             398.847        -9.35082e+06         2.52527e+08
    7.95              402073             393.904        -9.27354e+06         2.51203e+08
    7.97              397541             389.318        -9.20934e+06         2.50222e+08
    7.99              393569             385.087        -9.15815e+06         2.49585e+08
    8.01              390150             381.205        -9.11985e+06         2.49291e+08
    8.03              387273             377.664        -9.09431e+06         2.49338e+08
    8.05              384925             374.453        -9.08131e+06         2.49723e+08
    8.07              383093             371.558         -9.0806e+06          2.5044e+08
    8.09              381758             368.962        -9.09189e+06         2.51484e+08
    8.11              380901             366.648         -9.1148e+06         2.52846e+08
    8.13              380502             364.593        -9.14891e+06         2.54518e+08
    8.15              380533             362.776         -9.1937e+06         2.56487e+08
    8.17              380968             361.169         -9.2486e+06         2.58739e+08
    8.19              381774             359.746        -9.31291e+06         2.61257e+08
    8.21              382916             358.475        -9.38586e+06         2.64021e+08
    8.23              384355             357.324        -9.46657e+06          2.6701e+08
    8.25              386047             356.259        -9.55404e+06         2.70196e+08
    8.27              387947             355.244        -9.64716e+06         2.73551e+08
    8.29              390002             354.244         -9.7447e+06         2.77042e+08
    8.31              392159             353.219        -9.84532e+06         2.80632e+08
    8.33              394361             352.135        -9.94756e+06         2.84281e+08
    8.35              396548             350.955        -1.00499e+07         2.87944e+08
    8.37              398659             349.643        -1.01506e+07         2.91576e+08
    8.39              400632              348.17         -1.0248e+07         2.95125e+08
    8.41              402404             346.506        -1.03404e+07         2.98539e+08
    8.43              403914             344.627        -1.04259e+07         3.01764e+08
    8.45              405102             342.515        -1.05028e+07         3.04745e+08
    8.47              405912             340.155        -1.05692e+07         3.07426e+08
    8.49              406291              337.54        -1.06235e+07         3.09756e+08
    8.51              406193             334.668        -1.06642e+07         3.11684e+08
    8.53              405579             331.544        -1.06899e+07         3.13164e+08
    8.55              404416             328.178        -1.06994e+07         3.14156e+08
    8.57              402683             324.587        -1.06918e+07          3.1463e+08
    8.59              400366              320.79        -1.06665e+07         3.14563e+08
    8.61              397464             316.812        -1.06232e+07         3.13942e+08
    8.63              393986             312.682         -1.0562e+07         3.12767e+08
    8.65              389952             308.428        -1.04833e+07         3.11046e+08
    8.67              385393             304.082        -1.03879e+07         3.08802e+08
    8.69              380349             299.675        -1.02769e+07         3.06065e+08
    8.71              374868              295.24        -1.01516e+07         3.02877e+08
    8.73              369005             290.807        -1.00136e+07         2.99285e+08
    8.75              362821             286.404        -9.86475e+06         2.95345e+08
    8.77              356378             282.059         -9.7069e+06         2.91114e+08
    8.79              349740             277.797        -9.54202e+06         2.86653e+08
    8.81              342972              273.64        -9.37207e+06         2.82024e+08
    8.83              336134             269.608        -9.19896e+06         2.77288e+08
    8.85              329286             265.719        -9.02452e+06         2.72501e+08
    8.87              322482             261.987        -8.85048e+06         2.67719e+08
    8.89              315772             258.425         -8.6784e+06         2.62991e+08
    8.91              309200             255.044        -8.50972e+06         2.58363e+08
    8.93              302805             251.852        -8.34568e+06         2.53876e+08
    8.95              296621             248.856        -8.18738e+06         2.49564e+08
    8.97              290677             246.059        -8.03577e+06         2.45459e+08
    8.99              284995             243.465        -7.89163e+06         2.41587e+08
    9.01              279595             241.076        -7.75561e+06         2.37968e+08
    9.03              274492             238.891        -7.62821e+06         2.34621e+08
    9.05              269697             236.911        -7.50985e+06         2.31558e+08
    9.07              265218             235.133         -7.4008e+06         2.28791e+08
    9.09              261059             233.554        -7.30128e+06         2.26327e+08
    9.11              257222             232.171        -7.21137e+06         2.24169e+08
    9.13              253707             230.979        -7.13112e+06          2.2232e+08
    9.15              250511             229.972        -7.06047e+06          2.2078e+08
    9.17              247629             229.147         -6.9993e+06         2.19545e+08
    9.19              245053             228.495        -6.94744e+06         2.18611e+08
    9.21              242776              228.01        -6.90462e+06          2.1797e+08
    9.23              240784             227.686        -6.87051e+06         2.17612e+08
    9.25              239066             227.515        -6.84472e+06         2.17525e+08
    9.27              237604             227.489        -6.82677e+06         2.17695e+08
    9.29              236382             227.599        -6.81609e+06         2.18103e+08
    9.31              235379             227.839        -6.81204e+06          2.1873e+08
    9.33              234570               228.2        -6.81388e+06          2.1955e+08
    9.35              233931             228.674        -6.82077e+06         2.20537e+08
    9.37              233432             229.252        -6.83178e+06         2.21661e+08
    9.39              233041             229.926        -6.84588e+06         2.22888e+08
    9.41              232725             230.689        -6.86195e+06          2.2418e+08
    9.43              232447             231.532        -6.87881e+06         2.25498e+08
    9.45              232169             232.447         -6.8952e+06         2.26801e+08
    9.47              231852             233.426        -6.90981e+06         2.28044e+08
    9.49              231456             234.462        -6.92134e+06         2.29183e+08
    9.51              230943             235.547        -6.92849e+06         2.30175e+08
    9.53              230275             236.671        -6.93003e+06         2.30976e+08
    9.55              229419             237.828        -6.92478e+06         2.31548e+08
    9.57              228343             239.008        -6.91175e+06         2.31855e+08
    9.59              227023             240.203        -6.89005e+06         2.31866e+08
    9.61              225438             241.404        -6.85903e+06         2.31557e+08
    9.63              223577             242.601        -6.81824e+06         2.30912e+08
    9.65              221433             243.785        -6.76745e+06         2.29922e+08
    9.67              219007             244.946        -6.70667e+06         2.28584e+08
    9.69              216306             246.073        -6.63614e+06         2.26904e+08
    9.71              213345             247.156        -6.55629e+06         2.24894e+08
    9.73              210143             248.183        -6.46774e+06         2.22574e+08
    9.75              206722             249.144        -6.37126e+06         2.19967e+08
    9.77              203110             250.026        -6.26771e+06         2.17099e+08
    9.79              199335             250.816        -6.15803e+06            2.14e+08
    9.81              195427             251.501        -6.04321e+06           2.107e+08
    9.83              191416             252.066        -5.92421e+06          2.0723e+08
    9.85              187330             252.496        -5.80198e+06         2.03618e+08
    9.87              183198             252.775        -5.67741e+06         1.99892e+08
    9.89              179044             252.885        -5.55133e+06         1.96078e+08
    9.91              174891             252.809        -5.42447e+06         1.92196e+08
    9.93              170758              252.53        -5.29747e+06         1.88268e+08
    9.95              166664             252.029        -5.17091e+06         1.84307e+08
    9.97              162623             251.292        -5.04524e+06         1.80329e+08
    9.99              158648             250.303        -4.92087e+06         1.76345e+08
   10.01              154747             249.051         -4.7981e+06         1.72364e+08
   10.03              150929             247.528        -4.67722e+06         1.68393e+08
   10.05              147201             245.729        -4.55842e+06         1.64441e+08
   10.07              143566             243.655        -4.44187e+06         1.60512e+08
   10.09              140028             241.311        -4.32772e+06         1.56613e+08
   10.11              136589             238.706        -4.21608e+06         1.52751e+08
   10.13              133250             235.854        -4.10704e+06          1.4893e+08
   10.15              130013             232.775        -4.00069e+06         1.45158e+08
   10.17              126878             229.489        -3.89709e+06          1.4144e+08
   10.19              123844             226.021        -3.79631e+06         1.37784e+08
   10.21              120910             222.398        -3.69839e+06         1.34195e+08
   10.23              118076             218.648        -3.60338e+06         1.30679e+08
   10.25              115340             214.799         -3.5113e+06         1.27243e+08
   10.27              112701             210.877        -3.42219e+06         1.23892e+08
   10.29              110157             206.911        -3.33604e+06         1.20631e+08
   10.31              107706             202.924        -3.25285e+06         1.17464e+08
   10.33              105346             198.939        -3.17262e+06         1.14393e+08
   10.35              103074             194.979        -3.09531e+06         1.11422e+08
   10.37              100889              191.06        -3.02088e+06         1.08553e+08
   10.39             98787.6             187.199         -2.9493e+06         1.05785e+08
   10.41             96767.3             183.409        -2.88051e+06          1.0312e+08
   10.43             94825.3             179.703        -2.81443e+06         1.00556e+08
   10.45             92959.1             176.087        -2.75101e+06         9.80939e+07
   10.47             91165.9             172.571        -2.69016e+06         9.57304e+07
   10.49             89442.7             169.158         -2.6318e+06         9.34639e+07
   10.51               87787             165.853        -2.57584e+06         9.12919e+07
   10.53             86195.9             162.656         -2.5222e+06         8.92115e+07
   10.55             84666.6             159.569        -2.47078e+06         8.72195e+07
   10.57             83196.4             156.591        -2.42148e+06         8.53127e+07
   10.59             81782.6             153.721        -2.37421e+06         8.34873e+07
   10.61             80422.6             150.955        -2.32887e+06         8.17398e+07
   10.63             79113.7             148.292        -2.28538e+06         8.00662e+07
   10.65             77853.4             145.728        -2.24362e+06         7.84627e+07
   10.67             76639.2             143.257         -2.2035e+06         7.69255e+07
   10.69             75468.7             140.877        -2.16494e+06         7.54506e+07
   10.71             74339.6             138.583        -2.12785e+06         7.40345e+07
   10.73             73249.6              136.37        -2.09213e+06         7.26733e+07
   10.75             72196.6             134.233         -2.0577e+06         7.13636e+07
   10.77             71178.7             132.168         -2.0245e+06         7.01022e+07
   10.79               70194             130.171        -1.99243e+06          6.8886e+07
   10.81             69240.8             128.239        -1.96145e+06         6.77121e+07
   10.83             68317.5             126.366        -1.93148e+06         6.65782e+07
   10.85             67422.8             124.552        -1.90249e+06          6.5482e+07
   10.87             66555.3             122.792        -1.87441e+06         6.44217e+07
   10.89               65714             121.086        -1.84721e+06         6.33956e+07
   10.91               64898             119.431        -1.82086e+06         6.24025e+07
   10.93             64106.3             117.826        -1.79533e+06         6.14413e+07
   10.95             63338.3             116.271         -1.7706e+06         6.05112e+07
   10.97             62593.2             114.766        -1.74664e+06         5.96115e+07
   10.99             61870.6             113.309        -1.72345e+06         5.87417e+07
   11.01               61170             111.902        -1.70099e+06         5.79015e+07
   11.03             60490.8             110.545        -1.67928e+06         5.70904e+07
   11.05             59832.6             109.237        -1.65828e+06         5.63083e+07
   11.07             59195.2              107.98        -1.63801e+06         5.55549e+07
   11.09             58578.1             106.772        -1.61843e+06           5.483e+07
   11.11             57980.9             105.616        -1.59956e+06         5.41333e+07
   11.13             57403.5              104.51        -1.58137e+06         5.34648e+07
   11.15             56845.6             103.456        -1.56387e+06         5.28241e+07
   11.17             56306.9             102.452        -1.54705e+06         5.22112e+07
   11.19             55787.1               101.5         -1.5309e+06          5.1626e+07
   11.21             55286.3               100.6        -1.51542e+06         5.10682e+07
   11.23             54804.2             99.7507         -1.5006e+06         5.05378e+07
   11.25             54340.8             98.9532        -1.48645e+06         5.00348e+07
   11.27             53896.1             98.2075        -1.47297e+06         4.95593e+07
   11.29               53470             97.5137        -1.46015e+06         4.91111e+07
   11.31             53062.5              96.872          -1.448e+06         4.86905e+07
   11.33             52673.9             96.2826        -1.43652e+06         4.82976e+07
   11.35               52304             95.7458        -1.42571e+06         4.79325e+07
   11.37             51953.2              95.262        -1.41559e+06         4.75954e+07
   11.39             51621.4             94.8316        -1.40615e+06         4.72866e+07
   11.41             51308.8             94.4552         -1.3974e+06         4.70064e+07
   11.43             51015.6             94.1331        -1.38935e+06         4.67549e+07
   11.45               50742             93.8661        -1.38201e+06         4.65326e+07
   11.47             50488.1             93.6547        -1.37538e+06         4.63396e+07
   11.49             50254.1             93.4995        -1.36946e+06         4.61764e+07
   11.51             50040.1             93.4012        -1.36428e+06         4.60433e+07
   11.53             49846.3             93.3604        -1.35982e+06         4.59406e+07
   11.55             49672.8             93.3777         -1.3561e+06         4.58686e+07
   11.57             49519.7             93.4536        -1.35313e+06         4.58276e+07
   11.59             49387.1             93.5886        -1.35091e+06         4.58179e+07
   11.61             49275.1             93.7829        -1.34944e+06         4.58397e+07
   11.63             49183.5             94.0367        -1.34872e+06         4.58932e+07
   11.65             49112.4               94.35        -1.34876e+06         4.59785e+07
   11.67             49061.6             94.7226        -1.34955e+06         4.60955e+07
   11.69             49030.8             95.1537        -1.35108e+06         4.62441e+07
   11.71             49019.5             95.6425        -1.35335e+06          4.6424e+07
   11.73             49027.4             96.1876        -1.35633e+06         4.66347e+07
   11.75             49053.7              96.787        -1.36002e+06         4.68756e+07
   11.77             49097.6             97.4384        -1.36438e+06         4.71456e+07
   11.79             49157.9             98.1387        -1.36938e+06         4.74435e+07
   11.81             49233.4              98.884        -1.37498e+06         4.77677e+07
   11.83             49322.5             99.6699        -1.38113e+06         4.81161e+07
   11.85             49423.4             100.491        -1.38776e+06         4.84865e+07
   11.87               49534              101.34        -1.39481e+06         4.88759e+07
   11.89               49652             102.211        -1.40219e+06         4.92812e+07
   11.91             49774.8             103.096        -1.40983e+06         4.96986e+07
   11.93             49899.4             103.985        -1.41761e+06         5.01239e+07
   11.95               50023             104.869        -1.42543e+06         5.05526e+07
   11.97             50142.3             105.737        -1.43317e+06         5.09796e+07
   11.99               50254             106.578        -1.44072e+06         5.13998e+07
   12.01             50354.9             107.381        -1.44794e+06         5.18076e+07
   12.03             50441.8             108.134        -1.45472e+06         5.21975e+07
   12.05             50511.5             108.827        -1.46094e+06         5.25638e+07
   12.07             50561.2             109.448        -1.46646e+06         5.29011e+07
   12.09             50588.4             109.988        -1.47119e+06         5.32039e+07
   12.11             50590.7             110.437        -1.47502e+06         5.34675e+07
   12.13             50566.4             110.788        -1.47786e+06         5.36872e+07
   12.15             50514.1             111.035        -1.47963e+06         5.38591e+07
   12.17             50432.8             111.172        -1.48028e+06         5.39799e+07
   12.19               50322             111.197        -1.47975e+06         5.40468e+07
   12.21             50181.5             111.109        -1.47801e+06         5.40578e+07
   12.23             50011.7             110.907        -1.47505e+06         5.40117e+07
   12.25             49813.1             110.593        -1.47086e+06          5.3908e+07
   12.27             49586.8             110.172        -1.46547e+06         5.37467e+07
   12.29             49334.1             109.647        -1.45889e+06          5.3529e+07
   12.31             49056.6             109.024        -1.45118e+06         5.32565e+07
   12.33             48756.1             108.309        -1.44239e+06         5.29315e+07
   12.35             48434.8             107.511        -1.43258e+06         5.25572e+07
   12.37               48095             106.638        -1.42186e+06         5.21372e+07
   12.39             47739.1             105.698         -1.4103e+06         5.16759e+07
   12.41             47369.9             104.699        -1.39802e+06          5.1178e+07
   12.43               46990             103.652        -1.38513e+06         5.06487e+07
   12.45             46602.4             102.566        -1.37174e+06         5.00933e+07
   12.47             46209.9              101.45        -1.35798e+06         4.95175e+07
   12.49             45815.4             100.312        -1.34396e+06         4.89271e+07
   12.51             45421.6             99.1622        -1.32982e+06         4.83277e+07
   12.53             45031.2             98.0085        -1.31568e+06         4.77246e+07
   12.55             44646.8             96.8588        -1.30163e+06         4.71233e+07
   12.57             44270.8             95.7206        -1.28779e+06         4.65285e+07
   12.59             43905.2             94.6006        -1.27426e+06         4.59448e+07
   12.61             43552.2             93.5051        -1.26113e+06         4.53762e+07
   12.63             43213.3             92.4394        -1.24847e+06         4.48264e+07
   12.65             42890.3             91.4084        -1.23636e+06         4.42986e+07
   12.67             42584.2              90.416        -1.22485e+06         4.37954e+07
   12.69             42296.4             89.4655        -1.21399e+06         4.33191e+07
   12.71             42027.6             88.5593        -1.20382e+06         4.28714e+07
   12.73             41778.6             87.6993        -1.19439e+06         4.24538e+07
   12.75             41549.9             86.8865         -1.1857e+06         4.20671e+07
   12.77             41342.1             86.1212        -1.17778e+06         4.17121e+07
   12.79             41155.3             85.4033        -1.17065e+06         4.13891e+07
   12.81             40989.6             84.7316        -1.16429e+06         4.10979e+07
   12.83             40845.3             84.1049        -1.15872e+06         4.08385e+07
   12.85             40722.1             83.5209        -1.15392e+06         4.06102e+07
   12.87               40620             82.9774        -1.14989e+06         4.04123e+07
   12.89             40538.6             82.4713        -1.14661e+06         4.02438e+07
   12.91             40477.8             81.9995        -1.14406e+06         4.01036e+07
   12.93             40437.1             81.5585        -1.14222e+06         3.99904e+07
   12.95             40415.9             81.1448        -1.14107e+06         3.99028e+07
   12.97             40413.9             80.7545        -1.14056e+06         3.98391e+07
   12.99             40430.3             80.3841        -1.14068e+06         3.97975e+07
   13.01             40464.5             80.0297        -1.14138e+06         3.97764e+07
   13.03             40515.7             79.6877        -1.14263e+06         3.97737e+07
   13.05             40583.2             79.3545        -1.14438e+06         3.97873e+07
   13.07             40666.1             79.0269         -1.1466e+06         3.98153e+07
   13.09             40763.5             78.7014        -1.14923e+06         3.98555e+07
   13.11             40874.5             78.3752        -1.15224e+06         3.99057e+07
   13.13             40998.3             78.0452        -1.15557e+06         3.99638e+07
   13.15             41133.9             77.7091        -1.15918e+06         4.00279e+07
   13.17             41280.6             77.3644        -1.16303e+06         4.00959e+07
   13.19             41437.7             77.0091        -1.16709e+06         4.01661e+07
   13.21             41604.7             76.6416        -1.17132e+06         4.02372e+07
   13.23             41781.1             76.2606         -1.1757e+06         4.03079e+07
   13.25               41967             75.8656        -1.18022e+06         4.03775e+07
   13.27             42162.2             75.4562        -1.18486e+06         4.04457e+07
   13.29             42367.1             75.0327        -1.18964e+06         4.05125e+07
   13.31             42582.2             74.5962        -1.19457e+06         4.05784e+07
   13.33             42808.3             74.1481        -1.19968e+06         4.06445e+07
   13.35             43046.4             73.6903        -1.20499e+06          4.0712e+07
   13.37             43297.5             73.2254        -1.21055e+06         4.07827e+07
   13.39             43562.9             72.7561        -1.21641e+06         4.08583e+07
   13.41             43843.9             72.2855        -1.22261e+06          4.0941e+07
   13.43             44141.8             71.8168        -1.22921e+06         4.10328e+07
   13.45             44457.8             71.3534        -1.23624e+06         4.11357e+07
   13.47             44793.1             70.8984        -1.24376e+06         4.12514e+07
   13.49             45148.5             70.4549        -1.25179e+06         4.13816e+07
   13.51             45524.7             70.0255        -1.26037e+06         4.15275e+07
   13.53             45922.2             69.6127         -1.2695e+06         4.16896e+07
   13.55             46340.9             69.2182         -1.2792e+06         4.18683e+07
   13.57             46780.6             68.8435        -1.28944e+06         4.20632e+07
   13.59             47240.6             68.4893         -1.3002e+06         4.22733e+07
   13.61             47719.6             68.1558        -1.31142e+06          4.2497e+07
   13.63             48216.1             67.8426        -1.32306e+06         4.27322e+07
   13.65             48728.1             67.5489        -1.33504e+06         4.29761e+07
   13.67             49253.2              67.273        -1.34726e+06         4.32255e+07
   13.69             49788.8             67.0128        -1.35962e+06         4.34764e+07
   13.71             50331.7             66.7659          -1.372e+06         4.37247e+07
   13.73             50878.7             66.5291         -1.3843e+06          4.3966e+07
   13.75             51426.5             66.2993        -1.39637e+06         4.41958e+07
   13.77             51971.7             66.0728         -1.4081e+06         4.44095e+07
   13.79             52510.9             65.8458        -1.41936e+06         4.46028e+07
   13.81             53041.1             65.6146        -1.43005e+06         4.47717e+07
   13.83             53559.4             65.3754        -1.44007e+06         4.49128e+07
   13.85             54063.3             65.1245        -1.44933e+06         4.50232e+07
   13.87             54550.7             64.8587        -1.45778e+06         4.51009e+07
   13.89             55019.8              64.575        -1.46535e+06         4.51444e+07
   13.91             55469.4             64.2708        -1.47204e+06         4.51534e+07
   13.93             55898.3             63.9442        -1.47783e+06          4.5128e+07
   13.95             56305.9             63.5937        -1.48272e+06         4.50691e+07
   13.97             56691.4             63.2186        -1.48673e+06         4.49782e+07
   13.99               57054             62.8186        -1.48988e+06         4.48571e+07
   14.01             57392.9             62.3943        -1.49221e+06          4.4708e+07
   14.03             57706.9             61.9466        -1.49373e+06          4.4533e+07
   14.05             57994.5             61.4771        -1.49445e+06         4.43341e+07
   14.07             58253.5             60.9877        -1.49439e+06         4.41135e+07
   14.09             58481.8              60.481        -1.49355e+06         4.38726e+07
   14.11             58676.4             59.9597         -1.4919e+06          4.3613e+07
   14.13             58834.2             59.4266        -1.48943e+06         4.33355e+07
   14.15             58952.1             58.8851        -1.48611e+06         4.30411e+07
   14.17             59026.9             58.3382        -1.48189e+06         4.27301e+07
   14.19             59055.4             57.7892        -1.47676e+06          4.2403e+07
   14.21             59035.4             57.2412        -1.47068e+06         4.20601e+07
   14.23               58965             56.6973        -1.46364e+06         4.17019e+07
   14.25             58843.2             56.1604        -1.45563e+06         4.13288e+07
   14.27               58670             55.6331        -1.44667e+06         4.09418e+07
   14.29             58446.7             55.1181        -1.43679e+06          4.0542e+07
   14.31             58175.5             54.6175        -1.42606e+06          4.0131e+07
   14.33             57859.8             54.1334        -1.41454e+06         3.97105e+07
   14.35             57503.9             53.6675        -1.40234e+06         3.92829e+07
   14.37             57113.2             53.2214        -1.38958e+06         3.88506e+07
   14.39             56693.6             52.7964        -1.37638e+06         3.84164e+07
   14.41             56251.4             52.3936        -1.36287e+06         3.79833e+07
   14.43             55793.6             52.0139        -1.34921e+06         3.75541e+07
   14.45             55326.8             51.6579        -1.33553e+06         3.71319e+07
   14.47             54857.9             51.3263        -1.32198e+06         3.67197e+07
   14.49             54393.4             51.0194        -1.30869e+06         3.63202e+07
   14.51             53939.4             50.7375         -1.2958e+06         3.59359e+07
   14.53             53501.9             50.4806        -1.28342e+06         3.55694e+07
   14.55             53086.1             50.2489        -1.27167e+06         3.52228e+07
   14.57             52696.6             50.0422        -1.26063e+06         3.48979e+07
   14.59             52337.9             49.8606         -1.2504e+06         3.45966e+07
   14.61             52013.7             49.7038        -1.24105e+06         3.43201e+07
   14.63             51727.2             49.5717        -1.23265e+06         3.40699e+07
   14.65             51481.3             49.4642        -1.22525e+06         3.38469e+07
   14.67             51278.5             49.3809        -1.21891e+06          3.3652e+07
   14.69             51120.9             49.3218        -1.21366e+06          3.3486e+07
   14.71             51010.4             49.2867        -1.20955e+06         3.33495e+07
   14.73             50948.7             49.2753        -1.20659e+06          3.3243e+07
   14.75             50937.2             49.2876        -1.20483e+06          3.3167e+07
   14.77             50977.2             49.3235        -1.20427e+06          3.3122e+07
   14.79               51070              49.383        -1.20496e+06         3.31082e+07
   14.81             51216.6             49.4659         -1.2069e+06         3.31261e+07
   14.83             51418.3             49.5724        -1.21012e+06          3.3176e+07
   14.85             51676.2             49.7024        -1.21464e+06         3.32583e+07
   14.87             51991.4             49.8562        -1.22048e+06         3.33735e+07
   14.89             52365.1             50.0339        -1.22767e+06          3.3522e+07
   14.91             52798.6             50.2358        -1.23623e+06         3.37043e+07
   14.93             53293.2             50.4623        -1.24619e+06         3.39209e+07
   14.95             53850.3             50.7139        -1.25757e+06         3.41725e+07
   14.97             54471.3              50.991        -1.27041e+06         3.44597e+07
   14.99             55157.7             51.2945        -1.28473e+06         3.47833e+07
   15.01             55911.3             51.6249        -1.30058e+06          3.5144e+07
   15.03             56733.6             51.9833        -1.31798e+06         3.55426e+07
   15.05             57626.3             52.3706        -1.33697e+06           3.598e+07
   15.07             58591.2             52.7879         -1.3576e+06         3.64572e+07
   15.09             59629.8             53.2364        -1.37989e+06          3.6975e+07
   15.11               60744             53.7171        -1.40388e+06         3.75343e+07
   15.13             61935.2             54.2315        -1.42961e+06          3.8136e+07
   15.15             63204.7             54.7806         -1.4571e+06         3.87809e+07
   15.17             64553.8             55.3658        -1.48638e+06         3.94697e+07
   15.19             65983.1             55.9881        -1.51748e+06          4.0203e+07
   15.21             67493.3             56.6488         -1.5504e+06          4.0981e+07
   15.23               69084             57.3489        -1.58514e+06          4.1804e+07
   15.25             70754.6              58.089        -1.62169e+06         4.26718e+07
   15.27             72503.6               58.87        -1.66001e+06         4.35837e+07
   15.29             74328.4             59.6922        -1.70006e+06         4.45389e+07
   15.31             76225.5             60.5559        -1.74175e+06         4.55357e+07
   15.33             78189.9              61.461          -1.785e+06          4.6572e+07
   15.35             80215.4             62.4069        -1.82965e+06          4.7645e+07
   15.37             82293.8             63.3929        -1.87556e+06         4.87511e+07
   15.39             84415.5             64.4178        -1.92249e+06         4.98857e+07
   15.41             86568.5               65.48        -1.97022e+06         5.10436e+07
   15.43               88739             66.5772        -2.01844e+06         5.22182e+07
   15.45               90911              67.707        -2.06682e+06         5.34023e+07
   15.47             93066.2             68.8663        -2.11497e+06         5.45875e+07
   15.49             95184.6             70.0515        -2.16247e+06         5.57645e+07
   15.51             97244.1             71.2588        -2.20884e+06         5.69231e+07
   15.53             99221.2             72.4838         -2.2536e+06         5.80525e+07
   15.55              101091             73.7217        -2.29623e+06         5.91413e+07
   15.57              102829             74.9676        -2.33619e+06          6.0178e+07
   15.59              104410             76.2162        -2.37295e+06         6.11509e+07
   15.61              105810              77.462        -2.40602e+06         6.20488e+07
   15.63              107006             78.6994        -2.43491e+06         6.28613e+07
   15.65              107979             79.9228         -2.4592e+06          6.3579e+07
   15.67              108713             81.1266        -2.47855e+06         6.41937e+07
   15.69              109195             82.3051        -2.49267e+06         6.46991e+07
   15.71              109417              83.453         -2.5014e+06         6.50905e+07
   15.73              109377              84.565        -2.50464e+06         6.53656e+07
   15.75              109075             85.6362        -2.50242e+06         6.55236e+07
   15.77              108519              86.662        -2.49485e+06         6.55661e+07
   15.79              107720             87.6384        -2.48213e+06         6.54964e+07
   15.81              106692             88.5619        -2.46454e+06         6.53196e+07
   15.83              105454               89.43        -2.44246e+06         6.50422e+07
   15.85              104028              90.241        -2.41627e+06         6.46719e+07
   15.87              102434             90.9943        -2.38643e+06         6.42174e+07
   15.89              100697             91.6903        -2.35341e+06          6.3688e+07
   15.91             98841.2             92.3306        -2.31769e+06         6.30935e+07
   15.93             96889.4             92.9182        -2.27976e+06          6.2444e+07
   15.95             94864.6             93.4568        -2.24008e+06         6.17495e+07
   15.97             92788.2             93.9511        -2.19911e+06         6.10197e+07
   15.99               90680             94.4067        -2.15726e+06         6.02643e+07
   16.01             88558.1             94.8293        -2.11494e+06         5.94922e+07
   16.03             86438.8             95.2248        -2.07249e+06         5.87117e+07
   16.05             84336.3             95.5988        -2.03024e+06         5.79306e+07
   16.07               82263             95.9564        -1.98847e+06         5.71556e+07
   16.09             80229.1             96.3016        -1.94741e+06         5.63927e+07
   16.11             78243.4             96.6374        -1.90728e+06         5.56469e+07
   16.13             76312.8             96.9651        -1.86823e+06         5.49221e+07
   16.15             74442.8             97.2846        -1.83039e+06         5.42214e+07
   16.17             72637.3             97.5941        -1.79386e+06         5.35467e+07
   16.19               70899             97.8901         -1.7587e+06         5.28992e+07
   16.21             69229.7             98.1673        -1.72495e+06         5.22788e+07
   16.23               67630             98.4191        -1.69261e+06         5.16851e+07
   16.25             66099.9             98.6378        -1.66167e+06         5.11166e+07
   16.27             64638.6             98.8146        -1.63211e+06         5.05714e+07
   16.29               63245               98.94        -1.60388e+06         5.00472e+07
   16.31             61917.2             99.0049        -1.57694e+06         4.95411e+07
   16.33             60653.6             98.9999        -1.55121e+06         4.90505e+07
   16.35             59451.9             98.9169        -1.52664e+06         4.85725e+07
   16.37             58310.1             98.7485        -1.50317e+06         4.81045e+07
   16.39             57226.1             98.4894        -1.48073e+06         4.76442e+07
   16.41             56197.8             98.1356        -1.45929e+06         4.71899e+07
   16.43             55223.4             97.6856        -1.43879e+06         4.67401e+07
   16.45             54301.1             97.1399         -1.4192e+06         4.62942e+07
   16.47             53429.6             96.5011         -1.4005e+06          4.5852e+07
   16.49             52607.3             95.7741        -1.38268e+06         4.54141e+07
   16.51             51833.4             94.9655        -1.36574e+06         4.49816e+07
   16.53             51106.9             94.0836        -1.34968e+06         4.45563e+07
   16.55             50427.3              93.138        -1.33452e+06         4.41401e+07
   16.57             49793.9             92.1395        -1.32028e+06         4.37357e+07
   16.59             49206.6             91.0992          -1.307e+06         4.33458e+07
   16.61               48665             90.0288        -1.29471e+06         4.29736e+07
   16.63             48169.3             88.9398        -1.28344e+06          4.2622e+07
   16.65             47719.3             87.8437        -1.27324e+06         4.22943e+07
   16.67             47315.2             86.7513        -1.26416e+06         4.19936e+07
   16.69             46957.1             85.6729        -1.25622e+06         4.17228e+07
   16.71             46645.2              84.618        -1.24946e+06         4.14848e+07
   16.73             46379.6             83.5951        -1.24393e+06         4.12823e+07
   16.75             46160.6             82.6119        -1.23966e+06         4.11177e+07
   16.77             45988.2             81.6753        -1.23668e+06         4.09933e+07
   16.79             45862.7             80.7911        -1.23502e+06          4.0911e+07
   16.81               45784             79.9642         -1.2347e+06         4.08725e+07
   16.83             45752.3             79.1988        -1.23574e+06         4.08794e+07
   16.85             45767.5             78.4982        -1.23817e+06         4.09329e+07
   16.87             45829.4             77.8652        -1.24198e+06          4.1034e+07
   16.89             45937.8             77.3018        -1.24718e+06         4.11833e+07
   16.91             46092.3             76.8093        -1.25378e+06         4.13812e+07
   16.93             46292.1             76.3888        -1.26177e+06          4.1628e+07
   16.95             46536.7             76.0408        -1.27112e+06         4.19235e+07
   16.97             46824.7             75.7654        -1.28182e+06         4.22671e+07
   16.99             47154.9             75.5625        -1.29383e+06         4.26579e+07
   17.01             47525.6             75.4316        -1.30709e+06         4.30947e+07
   17.03             47934.5              75.372        -1.32156e+06         4.35758e+07
   17.05             48379.1             75.3828        -1.33715e+06         4.40988e+07
   17.07             48856.4             75.4628        -1.35378e+06         4.46611e+07
   17.09             49362.7             75.6106        -1.37133e+06         4.52593e+07
   17.11             49893.9             75.8249        -1.38968e+06         4.58895e+07
   17.13             50445.2             76.1037        -1.40869e+06         4.65472e+07
   17.15             51011.3             76.4453        -1.42818e+06         4.72271e+07
   17.17             51586.4             76.8473        -1.44798e+06         4.79235e+07
   17.19             52164.2             77.3073         -1.4679e+06         4.86302e+07
   17.21             52738.1             77.8225        -1.48772e+06         4.93402e+07
   17.23             53301.1             78.3898        -1.50722e+06         5.00463e+07
   17.25             53846.1             79.0056        -1.52617e+06         5.07412e+07
   17.27             54366.1             79.6658        -1.54436e+06         5.14171e+07
   17.29             54854.5              80.366        -1.56156e+06         5.20666e+07
   17.31             55304.8             81.1012        -1.57756e+06         5.26822e+07
   17.33             55711.5             81.8656        -1.59216e+06          5.3257e+07
   17.35             56069.5             82.6532        -1.60519e+06         5.37845e+07
   17.37               56375             83.4571        -1.61652e+06         5.42588e+07
   17.39             56624.9             84.2703        -1.62601e+06          5.4675e+07
   17.41             56817.2             85.0851        -1.63359e+06         5.50288e+07
   17.43             56951.1             85.8936        -1.63919e+06         5.53168e+07
   17.45             57026.7             86.6878        -1.64279e+06         5.55366e+07
   17.47             57044.9             87.4597        -1.64438e+06         5.56865e+07
   17.49             57007.5             88.2017          -1.644e+06         5.57658e+07
   17.51               56917             88.9068        -1.64169e+06         5.57746e+07
   17.53             56776.3             89.5686        -1.63751e+06         5.57134e+07
   17.55             56588.8              90.182        -1.63156e+06         5.55839e+07
   17.57             56358.2             90.7427        -1.62392e+06         5.53881e+07
   17.59             56088.3             91.2484         -1.6147e+06         5.51288e+07
   17.61             55783.1             91.6979        -1.60401e+06         5.48093e+07
   17.63             55446.6             92.0917        -1.59199e+06         5.44333e+07
   17.65             55082.9             92.4319        -1.57875e+06         5.40054e+07
   17.67             54696.1             92.7221        -1.56443e+06         5.35301e+07
   17.69             54290.1             92.9673        -1.54917e+06         5.30125e+07
   17.71             53868.9             93.1736         -1.5331e+06         5.24581e+07
   17.73             53436.5              93.348        -1.51636e+06         5.18724e+07
   17.75             52996.7             93.4982        -1.49909e+06          5.1261e+07
   17.77             52553.5             93.6326        -1.48143e+06         5.06298e+07
   17.79             52110.7             93.7595        -1.46351e+06         4.99844e+07
   17.81               51672             93.8877        -1.44548e+06         4.93305e+07
   17.83             51241.3             94.0253        -1.42748e+06         4.86737e+07
   17.85             50822.3             94.1806        -1.40962e+06         4.80193e+07
   17.87             50418.7             94.3613        -1.39203e+06         4.73724e+07
   17.89             50033.8             94.5746        -1.37484e+06         4.67377e+07
   17.91               49671              94.827        -1.35816e+06         4.61196e+07
   17.93             49333.5             95.1245        -1.34209e+06         4.55221e+07
   17.95             49023.9             95.4722        -1.32671e+06         4.49486e+07
   17.97             48744.6             95.8747        -1.31211e+06         4.44019e+07
   17.99             48497.9             96.3356        -1.29835e+06         4.38844e+07
   18.01             48285.2             96.8575        -1.28547e+06         4.33977e+07
   18.03             48107.6             97.4422         -1.2735e+06         4.29427e+07
   18.05             47965.7             98.0906        -1.26245e+06         4.25196e+07
   18.07             47859.5             98.8024         -1.2523e+06         4.21279e+07
   18.09             47788.4             99.5763        -1.24304e+06         4.17663e+07
   18.11             47751.2              100.41        -1.23461e+06         4.14328e+07
   18.13             47746.2             101.299        -1.22693e+06         4.11248e+07
   18.15               47771             102.239        -1.21993e+06         4.08388e+07
   18.17             47822.7             103.224        -1.21349e+06         4.05708e+07
   18.19             47897.8             104.247        -1.20749e+06         4.03162e+07
   18.21             47992.7             105.299         -1.2018e+06           4.007e+07
   18.23               48103             106.372        -1.19627e+06         3.98268e+07
   18.25             48224.5             107.455        -1.19075e+06         3.95812e+07
   18.27             48352.4             108.538        -1.18508e+06         3.93275e+07
   18.29             48482.5              109.61        -1.17912e+06         3.90604e+07
   18.31             48610.3             110.662        -1.17272e+06         3.87748e+07
   18.33             48731.8             111.681        -1.16574e+06         3.84662e+07
   18.35             48843.7             112.658        -1.15808e+06         3.81306e+07
   18.37               48943             113.584        -1.14965e+06         3.77651e+07
   18.39             49027.5             114.449        -1.14038e+06         3.73675e+07
   18.41             49096.1             115.246        -1.13024e+06         3.69367e+07
   18.43               49148             115.968        -1.11921e+06         3.64726e+07
   18.45             49183.7             116.609        -1.10731e+06         3.59762e+07
   18.47             49204.2             117.165        -1.09458e+06         3.54492e+07
   18.49             49211.1             117.631        -1.08111e+06         3.48942e+07
   18.51             49206.7             118.004        -1.06697e+06         3.43145e+07
   18.53             49193.5             118.282        -1.05228e+06          3.3714e+07
   18.55             49174.2             118.462        -1.03714e+06         3.30967e+07
   18.57             49151.5             118.543        -1.02169e+06         3.24671e+07
   18.59             49128.2             118.525        -1.00603e+06         3.18294e+07
   18.61             49106.5             118.406             -990309          3.1188e+07
   18.63             49088.5             118.186             -974628         3.05469e+07
   18.65             49075.7             117.867             -959102         2.99098e+07
   18.67             49069.2             117.448             -943828         2.92803e+07
   18.69             49069.8             116.932             -928898         2.86614e+07
   18.71             49077.6              116.32             -914387         2.80555e+07
   18.73             49092.8             115.615             -900362         2.74651e+07
   18.75             49114.9             114.821             -886879         2.68918e+07
   18.77             49143.8             113.943             -873982         2.63372e+07
   18.79             49179.2             112.986             -861710         2.58022e+07
   18.81             49220.9             111.956             -850089         2.52876e+07
   18.83             49269.2             110.859             -839141          2.4794e+07
   18.85             49324.6             109.705             -828883         2.43217e+07
   18.87               49388               108.5             -819326         2.38707e+07
   18.89             49460.9             107.253             -810476          2.3441e+07
   18.91             49545.1             105.974             -802338         2.30323e+07
   18.93             49642.8             104.671             -794912         2.26444e+07
   18.95             49756.5             103.354             -788199         2.22769e+07
   18.97             49888.6             102.031             -782193         2.19294e+07
   18.99               50042              100.71             -776889         2.16015e+07
   19.01               50219             99.4009             -772276         2.12927e+07
   19.03             50421.9             98.1096             -768341         2.10023e+07
   19.05             50652.4             96.8431             -765067         2.07299e+07
   19.07             50911.6              95.607             -762430         2.04749e+07
   19.09             51199.9              94.406             -760405         2.02366e+07
   19.11             51516.8             93.2439             -758954         2.00142e+07
   19.13             51860.9             92.1233             -758038         1.98071e+07
   19.15             52229.6             91.0458             -757604         1.96142e+07
   19.17             52619.2             90.0121             -757596         1.94347e+07
   19.19             53024.8             89.0219             -757945         1.92674e+07
   19.21             53440.3             88.0738             -758573         1.91112e+07
   19.23             53858.3             87.1658             -759395         1.89648e+07
   19.25             54270.6             86.2948             -760316         1.88267e+07
   19.27             54667.6             85.4575             -761231         1.86955e+07
   19.29             55039.2             84.6494             -762033         1.85696e+07
   19.31             55374.6             83.8661             -762607         1.84473e+07
   19.33             55662.6             83.1025             -762838         1.83269e+07
   19.35             55892.2             82.3532             -762611         1.82068e+07
   19.37             56052.6             81.6128             -761817         1.80853e+07
   19.39             56133.9             80.8756             -760352         1.79608e+07
   19.41             56127.2             80.1362             -758126         1.78317e+07
   19.43             56025.4              79.389             -755061         1.76968e+07
   19.45               55823              78.629             -751098         1.75547e+07
   19.47             55516.5              77.851             -746197         1.74046e+07
   19.49             55104.9             77.0507             -740338         1.72457e+07
   19.51             54589.1              76.224             -733523         1.70774e+07
   19.53             53972.3             75.3674             -725773         1.68993e+07
   19.55             53259.7             74.4781             -717130         1.67115e+07
   19.57             52458.3             73.5541             -707651          1.6514e+07
   19.59             51576.4              72.594             -697408         1.63072e+07
   19.61             50623.5             71.5973             -686484         1.60917e+07
   19.63             49609.7             70.5643             -674969         1.58681e+07
   19.65             48545.5             69.4962             -662959         1.56372e+07
   19.67             47441.3             68.3949             -650550            1.54e+07
   19.69             46307.4             67.2631             -637836         1.51575e+07
   19.71             45153.4              66.104             -624909         1.49107e+07
   19.73             43988.4             64.9215             -611856         1.46608e+07
   19.75             42820.6             63.7196             -598756         1.44087e+07
   19.77             41657.3              62.503             -585682         1.41555e+07
   19.79             40504.9             61.2762             -572699         1.39022e+07
   19.81             39368.8             60.0439             -559861         1.36499e+07
   19.83             38253.7             58.8106             -547219         1.33992e+07
   19.85             37163.3             57.5807             -534812         1.31512e+07
   19.87             36100.6             56.3584             -522674         1.29064e+07
   19.89             35067.9             55.1473             -510832         1.26655e+07
   19.91             34066.9             53.9509             -499306         1.24291e+07
   19.93             33098.8             52.7723             -488112         1.21975e+07
   19.95             32164.2             51.6139             -477260         1.19712e+07
   19.97             31263.4             50.4781             -466755         1.17504e+07
   19.99             30396.5             49.3666             -456601         1.15355e+07
   20.01               29563             48.2809             -446797         1.13264e+07
