## w(eV)         sigma(Sm^-1)     kappa(W(mK)^-1)        L12/e(Am^-1)      L22/e^2(Wm^-1)
    0.01              763007             2171.66        -1.27655e+07         4.19301e+08
    0.03              763332             2171.48        -1.27663e+07         4.19218e+08
    0.05              763940              2171.1        -1.27669e+07         4.19032e+08
    0.07              764847             2170.51        -1.27677e+07         4.18752e+08
    0.09              766053             2169.69         -1.2769e+07         4.18382e+08
    0.11              767554             2168.62        -1.27708e+07         4.17924e+08
    0.13              769347             2167.25        -1.27733e+07         4.17381e+08
    0.15              771427             2165.55        -1.27766e+07         4.16758e+08
    0.17              773789             2163.48        -1.27809e+07         4.16058e+08
    0.19              776426             2160.99        -1.27864e+07         4.15285e+08
    0.21              779334             2158.03        -1.27933e+07         4.14446e+08
    0.23              782503             2154.55        -1.28018e+07         4.13545e+08
    0.25              785928             2150.49        -1.28123e+07         4.12589e+08
    0.27              789600              2145.8        -1.28249e+07         4.11582e+08
    0.29              793509             2140.42        -1.28399e+07         4.10533e+08
    0.31              797649              2134.3        -1.28577e+07         4.09446e+08
    0.33              802008             2127.39        -1.28784e+07         4.08328e+08
    0.35              806581             2119.63        -1.29023e+07         4.07188e+08
    0.37              811353             2110.99        -1.29298e+07         4.06029e+08
    0.39              816314              2101.4         -1.2961e+07         4.04857e+08
    0.41              821454             2090.84        -1.29961e+07          4.0368e+08
    0.43              826761             2079.27        -1.30355e+07         4.02503e+08
    0.45              832224             2066.65        -1.30792e+07         4.01331e+08
    0.47              837831             2052.94        -1.31276e+07          4.0017e+08
    0.49              843570             2038.14        -1.31806e+07         3.99023e+08
    0.51              849426             2022.21        -1.32385e+07         3.97895e+08
    0.53              855387             2005.15        -1.33013e+07         3.96789e+08
    0.55              861437             1986.94        -1.33691e+07         3.95708e+08
    0.57              867561             1967.57        -1.34417e+07         3.94655e+08
    0.59              873744             1947.05        -1.35193e+07          3.9363e+08
    0.61              879969             1925.38        -1.36017e+07         3.92636e+08
    0.63              886216             1902.56        -1.36887e+07         3.91672e+08
    0.65              892468             1878.62        -1.37801e+07         3.90737e+08
    0.67              898704             1853.58        -1.38757e+07         3.89831e+08
    0.69              904903             1827.46        -1.39753e+07         3.88952e+08
    0.71              911043             1800.29        -1.40783e+07         3.88098e+08
    0.73              917100             1772.11        -1.41845e+07         3.87264e+08
    0.75              923050             1742.96        -1.42934e+07         3.86449e+08
    0.77              928866             1712.89        -1.44045e+07         3.85647e+08
    0.79              934523             1681.96        -1.45173e+07         3.84854e+08
    0.81              939993             1650.22        -1.46311e+07         3.84065e+08
    0.83              945246             1617.74        -1.47454e+07         3.83275e+08
    0.85              950253             1584.59        -1.48596e+07         3.82478e+08
    0.87              954985             1550.84        -1.49728e+07         3.81668e+08
    0.89              959412             1516.57        -1.50845e+07         3.80838e+08
    0.91              963502             1481.87         -1.5194e+07         3.79984e+08
    0.93              967226             1446.81        -1.53006e+07         3.79099e+08
    0.95              970554             1411.49        -1.54034e+07         3.78177e+08
    0.97              973458                1376        -1.55019e+07         3.77214e+08
    0.99              975909             1340.43        -1.55954e+07         3.76203e+08
    1.01              977881             1304.87        -1.56832e+07          3.7514e+08
    1.03              979350             1269.41        -1.57648e+07         3.74022e+08
    1.05              980294             1234.16        -1.58394e+07         3.72845e+08
    1.07              980693              1199.2        -1.59067e+07         3.71607e+08
    1.09              980531             1164.61        -1.59661e+07         3.70305e+08
    1.11              979795             1130.49        -1.60173e+07         3.68939e+08
    1.13              978477             1096.92          -1.606e+07          3.6751e+08
    1.15              976571             1063.98        -1.60938e+07         3.66018e+08
    1.17              974077             1031.73        -1.61187e+07         3.64467e+08
    1.19              970999             1000.26        -1.61347e+07          3.6286e+08
    1.21              967348             969.615        -1.61416e+07         3.61201e+08
    1.23              963138              939.86        -1.61398e+07         3.59498e+08
    1.25              958389             911.045        -1.61293e+07         3.57756e+08
    1.27              953128             883.214        -1.61106e+07         3.55986e+08
    1.29              947386             856.404        -1.60841e+07         3.54196e+08
    1.31              941200             830.648        -1.60503e+07         3.52397e+08
    1.33              934612             805.969        -1.60099e+07         3.50601e+08
    1.35              927671             782.386        -1.59635e+07         3.48821e+08
    1.37              920429             759.912        -1.59121e+07          3.4707e+08
    1.39              912945             738.553        -1.58564e+07         3.45364e+08
    1.41              905281             718.311        -1.57974e+07         3.43717e+08
    1.43              897501             699.182        -1.57362e+07         3.42144e+08
    1.45              889677             681.159        -1.56739e+07         3.40663e+08
    1.47              881881             664.231        -1.56116e+07         3.39289e+08
    1.49              874188             648.384        -1.55504e+07         3.38039e+08
    1.51              866673             633.601        -1.54915e+07         3.36929e+08
    1.53              859415             619.864        -1.54362e+07         3.35974e+08
    1.55              852492             607.154        -1.53856e+07         3.35192e+08
    1.57              845980              595.45        -1.53408e+07         3.34596e+08
    1.59              839956             584.734        -1.53031e+07           3.342e+08
    1.61              834494             574.986        -1.52736e+07         3.34019e+08
    1.63              829664             566.188        -1.52532e+07         3.34064e+08
    1.65              825534             558.322        -1.52431e+07         3.34347e+08
    1.67              822167             551.374         -1.5244e+07         3.34876e+08
    1.69              819621             545.328        -1.52569e+07          3.3566e+08
    1.71              817949             540.172        -1.52824e+07         3.36706e+08
    1.73              817196             535.893        -1.53213e+07         3.38018e+08
    1.75              817402             532.479        -1.53739e+07         3.39599e+08
    1.77              818598              529.92        -1.54408e+07         3.41451e+08
    1.79              820808             528.202        -1.55221e+07         3.43573e+08
    1.81              824047             527.313        -1.56181e+07         3.45962e+08
    1.83              828323             527.238        -1.57287e+07         3.48614e+08
    1.85              833633             527.961        -1.58539e+07         3.51522e+08
    1.87              839967             529.464        -1.59934e+07         3.54678e+08
    1.89              847305             531.723        -1.61467e+07         3.58073e+08
    1.91              855617             534.715        -1.63135e+07         3.61693e+08
    1.93              864866             538.411         -1.6493e+07         3.65527e+08
    1.95              875006             542.779        -1.66845e+07         3.69558e+08
    1.97              885981             547.786        -1.68872e+07         3.73771e+08
    1.99              897730             553.395           -1.71e+07         3.78146e+08
    2.01              910180             559.565        -1.73219e+07         3.82666e+08
    2.03              923255             566.254        -1.75516e+07         3.87309e+08
    2.05              936869             573.419         -1.7788e+07         3.92055e+08
    2.07              950933             581.014        -1.80296e+07         3.96882e+08
    2.09              965350             588.991        -1.82752e+07         4.01766e+08
    2.11              980021             597.305        -1.85231e+07         4.06684e+08
    2.13              994841             605.907         -1.8772e+07         4.11613e+08
    2.15          1.0097e+06             614.749        -1.90202e+07         4.16528e+08
    2.17          1.0245e+06             623.783        -1.92663e+07         4.21406e+08
    2.19         1.03912e+06             632.962        -1.95086e+07         4.26222e+08
    2.21         1.05344e+06             642.237        -1.97457e+07         4.30952e+08
    2.23         1.06737e+06             651.564        -1.99759e+07         4.35573e+08
    2.25          1.0808e+06             660.894        -2.01978e+07         4.40062e+08
    2.27          1.0936e+06             670.183        -2.04098e+07         4.44394e+08
    2.29         1.10569e+06             679.385        -2.06105e+07         4.48549e+08
    2.31         1.11695e+06             688.456        -2.07986e+07         4.52505e+08
    2.33          1.1273e+06             697.351        -2.09726e+07         4.56242e+08
    2.35         1.13665e+06             706.028        -2.11314e+07         4.59739e+08
    2.37          1.1449e+06             714.442        -2.12739e+07         4.62978e+08
    2.39         1.15199e+06              722.55        -2.13988e+07         4.65943e+08
    2.41         1.15785e+06             730.311        -2.15054e+07         4.68615e+08
    2.43         1.16241e+06             737.682        -2.15926e+07         4.70982e+08
    2.45         1.16561e+06             744.622        -2.16597e+07         4.73028e+08
    2.47         1.16742e+06             751.088        -2.17062e+07         4.74742e+08
    2.49          1.1678e+06              757.04        -2.17314e+07         4.76112e+08
    2.51         1.16673e+06             762.439         -2.1735e+07         4.77131e+08
    2.53         1.16418e+06             767.244        -2.17167e+07         4.77789e+08
    2.55         1.16015e+06             771.417        -2.16764e+07         4.78082e+08
    2.57         1.15465e+06             774.921        -2.16139e+07         4.78004e+08
    2.59         1.14768e+06             777.719        -2.15295e+07         4.77553e+08
    2.61         1.13927e+06             779.777        -2.14234e+07         4.76728e+08
    2.63         1.12944e+06             781.061        -2.12959e+07         4.75529e+08
    2.65         1.11825e+06             781.541        -2.11474e+07          4.7396e+08
    2.67         1.10573e+06             781.188        -2.09786e+07         4.72024e+08
    2.69         1.09194e+06             779.976        -2.07902e+07         4.69727e+08
    2.71         1.07695e+06             777.883        -2.05829e+07         4.67076e+08
    2.73         1.06082e+06             774.886        -2.03577e+07         4.64081e+08
    2.75         1.04364e+06             770.971        -2.01155e+07         4.60752e+08
    2.77         1.02547e+06             766.124        -1.98574e+07         4.57101e+08
    2.79         1.00641e+06             760.336        -1.95846e+07         4.53141e+08
    2.81              986543             753.602        -1.92981e+07         4.48889e+08
    2.83              965965             745.922        -1.89994e+07         4.44359e+08
    2.85              944767             737.299        -1.86896e+07         4.39568e+08
    2.87              923047             727.742        -1.83701e+07         4.34535e+08
    2.89              900898             717.265        -1.80422e+07         4.29278e+08
    2.91              878418             705.886        -1.77073e+07         4.23818e+08
    2.93              855700             693.629        -1.73667e+07         4.18173e+08
    2.95              832836             680.522        -1.70218e+07         4.12364e+08
    2.97              809916             666.598        -1.66738e+07         4.06413e+08
    2.99              787026             651.898         -1.6324e+07         4.00338e+08
    3.01              764250             636.463        -1.59737e+07         3.94161e+08
    3.03              741663             620.343        -1.56239e+07         3.87901e+08
    3.05              719340             603.591        -1.52759e+07         3.81579e+08
    3.07              697347             586.265        -1.49306e+07         3.75212e+08
    3.09              675747             568.426        -1.45891e+07         3.68819e+08
    3.11              654593             550.141         -1.4252e+07         3.62417e+08
    3.13              633935             531.479        -1.39204e+07         3.56022e+08
    3.15              613815             512.513        -1.35948e+07         3.49648e+08
    3.17              594269             493.319        -1.32758e+07         3.43309e+08
    3.19              575326             473.973        -1.29639e+07         3.37018e+08
    3.21              557008             454.557        -1.26595e+07         3.30785e+08
    3.23              539330             435.148         -1.2363e+07         3.24619e+08
    3.25              522303             415.828        -1.20745e+07         3.18528e+08
    3.27              505931             396.676        -1.17941e+07          3.1252e+08
    3.29              490211             377.771        -1.15219e+07         3.06598e+08
    3.31              475136             359.188        -1.12578e+07         3.00766e+08
    3.33              460694                 341        -1.10016e+07         2.95028e+08
    3.35              446868             323.276        -1.07532e+07         2.89383e+08
    3.37              433638             306.082        -1.05122e+07         2.83833e+08
    3.39              420979             289.476        -1.02784e+07         2.78376e+08
    3.41              408866             273.514        -1.00514e+07         2.73011e+08
    3.43              397267             258.242        -9.83074e+06         2.67735e+08
    3.45              386152             243.703          -9.616e+06         2.62545e+08
    3.47              375489             229.932        -9.40671e+06         2.57438e+08
    3.49              365243             216.958         -9.2024e+06          2.5241e+08
    3.51              355381             204.804        -9.00259e+06         2.47458e+08
    3.53              345868             193.484        -8.80682e+06         2.42577e+08
    3.55              336673             183.012        -8.61463e+06         2.37764e+08
    3.57              327761              173.39        -8.42558e+06         2.33017e+08
    3.59              319103             164.619        -8.23927e+06         2.28333e+08
    3.61              310670             156.694        -8.05533e+06          2.2371e+08
    3.63              302433             149.607        -7.87342e+06         2.19146e+08
    3.65              294368             143.345        -7.69325e+06         2.14641e+08
    3.67              286452             137.893         -7.5146e+06         2.10196e+08
    3.69              278666             133.233        -7.33728e+06         2.05812e+08
    3.71              270992             129.344        -7.16114e+06         2.01491e+08
    3.73              263415             126.203        -6.98612e+06         1.97236e+08
    3.75              255924             123.785        -6.81218e+06         1.93052e+08
    3.77              248511             122.066        -6.63935e+06         1.88944e+08
    3.79              241168             121.017        -6.46773e+06         1.84918e+08
    3.81              233892             120.608        -6.29742e+06         1.80981e+08
    3.83              226682             120.811        -6.12862e+06         1.77139e+08
    3.85              219540             121.591        -5.96155e+06         1.73403e+08
    3.87              212469             122.917        -5.79645e+06         1.69779e+08
    3.89              205475             124.752        -5.63363e+06         1.66279e+08
    3.91              198565             127.059        -5.47341e+06          1.6291e+08
    3.93              191747             129.798        -5.31612e+06         1.59684e+08
    3.95              185032             132.928        -5.16214e+06         1.56609e+08
    3.97              178431             136.403        -5.01184e+06         1.53696e+08
    3.99              171957             140.176        -4.86561e+06         1.50954e+08
    4.01              165621             144.197        -4.72382e+06         1.48393e+08
    4.03              159436             148.411        -4.58686e+06          1.4602e+08
    4.05              153416             152.761        -4.45511e+06         1.43845e+08
    4.07              147574             157.187        -4.32891e+06         1.41875e+08
    4.09              141921             161.623        -4.20862e+06         1.40116e+08
    4.11              136472             166.004        -4.09454e+06         1.38574e+08
    4.13              131235              170.26        -3.98697e+06         1.37254e+08
    4.15              126224             174.318        -3.88616e+06          1.3616e+08
    4.17              121447             178.108        -3.79236e+06         1.35295e+08
    4.19              116912             181.556        -3.70575e+06         1.34659e+08
    4.21              112629             184.591        -3.62649e+06         1.34255e+08
    4.23              108603             187.148        -3.55471e+06          1.3408e+08
    4.25              104839             189.163         -3.4905e+06         1.34132e+08
    4.27              101341             190.584         -3.4339e+06          1.3441e+08
    4.29               98113             191.365        -3.38492e+06         1.34909e+08
    4.31             95155.4             191.475        -3.34354e+06         1.35623e+08
    4.33             92468.8             190.895        -3.30971e+06         1.36547e+08
    4.35             90052.3             189.623        -3.28332e+06         1.37674e+08
    4.37             87904.3             187.673        -3.26426e+06         1.38995e+08
    4.39             86021.1             185.076        -3.25238e+06         1.40502e+08
    4.41             84398.9             181.879        -3.24748e+06         1.42186e+08
    4.43             83032.9             178.145        -3.24938e+06         1.44037e+08
    4.45             81917.3             173.952        -3.25786e+06         1.46044e+08
    4.47             81045.9             169.386        -3.27266e+06         1.48198e+08
    4.49             80411.6              164.54        -3.29355e+06         1.50487e+08
    4.51             80006.9             159.511        -3.32025e+06           1.529e+08
    4.53             79823.9             154.396         -3.3525e+06         1.55427e+08
    4.55             79854.5             149.287        -3.39002e+06         1.58057e+08
    4.57             80090.2              144.27        -3.43252e+06         1.60779e+08
    4.59             80522.6              139.42        -3.47975e+06         1.63583e+08
    4.61             81143.1             134.802        -3.53141e+06          1.6646e+08
    4.63             81943.2             130.468        -3.58725e+06           1.694e+08
    4.65             82914.5             126.458        -3.64702e+06         1.72395e+08
    4.67             84048.9             122.797        -3.71045e+06         1.75436e+08
    4.69             85338.5             119.503        -3.77733e+06         1.78516e+08
    4.71             86775.4             116.579        -3.84742e+06         1.81629e+08
    4.73             88352.4             114.021        -3.92051e+06         1.84769e+08
    4.75             90062.4             111.818        -3.99643e+06          1.8793e+08
    4.77             91898.6             109.953        -4.07498e+06         1.91109e+08
    4.79             93854.7             108.403        -4.15599e+06         1.94301e+08
    4.81             95924.5             107.142        -4.23933e+06         1.97505e+08
    4.83             98102.5             106.144        -4.32485e+06         2.00716e+08
    4.85              100383             105.384        -4.41242e+06         2.03934e+08
    4.87              102761             104.833        -4.50192e+06         2.07158e+08
    4.89              105231             104.465        -4.59324e+06         2.10386e+08
    4.91              107789             104.254        -4.68627e+06         2.13618e+08
    4.93              110429             104.178        -4.78091e+06         2.16853e+08
    4.95              113148             104.217        -4.87705e+06          2.2009e+08
    4.97              115939             104.353        -4.97459e+06         2.23331e+08
    4.99              118798             104.571        -5.07341e+06         2.26573e+08
    5.01              121720             104.858         -5.1734e+06         2.29815e+08
    5.03              124700             105.206        -5.27442e+06         2.33057e+08
    5.05              127732             105.606        -5.37632e+06         2.36296e+08
    5.07              130811             106.055        -5.47895e+06          2.3953e+08
    5.09              133930             106.552        -5.58214e+06         2.42755e+08
    5.11              137083             107.096        -5.68568e+06         2.45966e+08
    5.13              140262             107.689        -5.78936e+06         2.49159e+08
    5.15              143461             108.337        -5.89293e+06         2.52326e+08
    5.17              146672             109.044        -5.99616e+06         2.55462e+08
    5.19              149886              109.82        -6.09875e+06         2.58557e+08
    5.21              153095             110.673         -6.2004e+06         2.61603e+08
    5.23              156291             111.612        -6.30081e+06         2.64588e+08
    5.25              159464              112.65        -6.39963e+06         2.67503e+08
    5.27              162605             113.798        -6.49652e+06         2.70333e+08
    5.29              165706             115.068        -6.59111e+06         2.73068e+08
    5.31              168757             116.474        -6.68304e+06         2.75693e+08
    5.33              171748             118.027        -6.77194e+06         2.78194e+08
    5.35              174672             119.742        -6.85743e+06         2.80558e+08
    5.37              177520             121.632        -6.93915e+06         2.82769e+08
    5.39              180284             123.709        -7.01674e+06         2.84813e+08
    5.41              182957             125.985        -7.08985e+06         2.86677e+08
    5.43              185533             128.473        -7.15817e+06         2.88345e+08
    5.45              188005             131.182         -7.2214e+06         2.89806e+08
    5.47              190369             134.122        -7.27926e+06         2.91047e+08
    5.49              192623             137.302        -7.33153e+06         2.92057e+08
    5.51              194764             140.727        -7.37802e+06         2.92825e+08
    5.53              196790             144.402        -7.41856e+06         2.93344e+08
    5.55              198703             148.329        -7.45307e+06         2.93606e+08
    5.57              200505             152.508        -7.48148e+06         2.93606e+08
    5.59              202198             156.934        -7.50381e+06         2.93342e+08
    5.61              203789             161.601        -7.52009e+06         2.92811e+08
    5.63              205282             166.498        -7.53044e+06         2.92015e+08
    5.65              206687              171.61        -7.53504e+06         2.90956e+08
    5.67              208013             176.918        -7.53409e+06          2.8964e+08
    5.69              209269             182.397        -7.52787e+06         2.88074e+08
    5.71              210468              188.02        -7.51672e+06         2.86267e+08
    5.73              211622             193.753          -7.501e+06          2.8423e+08
    5.75              212744             199.557        -7.48114e+06         2.81978e+08
    5.77              213851             205.391         -7.4576e+06         2.79525e+08
    5.79              214955             211.206        -7.43087e+06         2.76889e+08
    5.81              216073             216.953        -7.40149e+06         2.74088e+08
    5.83              217219             222.579           -7.37e+06         2.71141e+08
    5.85              218410             228.027        -7.33699e+06         2.68071e+08
    5.87              219660             233.243        -7.30302e+06         2.64898e+08
    5.89              220984             238.171        -7.26869e+06         2.61647e+08
    5.91              222396             242.757        -7.23458e+06         2.58339e+08
    5.93              223908              246.95        -7.20127e+06         2.54999e+08
    5.95              225533             250.704        -7.16932e+06         2.51651e+08
    5.97              227280             253.979        -7.13926e+06         2.48317e+08
    5.99              229159             256.743        -7.11162e+06         2.45021e+08
    6.01              231177             258.971        -7.08685e+06         2.41784e+08
    6.03              233340             260.647        -7.06541e+06         2.38629e+08
    6.05              235651             261.766        -7.04769e+06         2.35575e+08
    6.07              238112             262.331        -7.03403e+06         2.32643e+08
    6.09              240722             262.357        -7.02474e+06         2.29849e+08
    6.11              243481             261.867        -7.02005e+06          2.2721e+08
    6.13              246382             260.893        -7.02015e+06          2.2474e+08
    6.15              249420             259.475        -7.02518e+06         2.22452e+08
    6.17              252586             257.659        -7.03521e+06         2.20358e+08
    6.19              255871             255.498        -7.05026e+06         2.18466e+08
    6.21              259263             253.046         -7.0703e+06         2.16784e+08
    6.23              262748             250.362        -7.09524e+06         2.15317e+08
    6.25              266311             247.505        -7.12494e+06         2.14068e+08
    6.27              269937             244.531         -7.1592e+06         2.13039e+08
    6.29              273608             241.498         -7.1978e+06          2.1223e+08
    6.31              277305             238.458        -7.24045e+06         2.11638e+08
    6.33              281010              235.46        -7.28684e+06          2.1126e+08
    6.35              284705             232.546        -7.33662e+06         2.11089e+08
    6.37              288368             229.756         -7.3894e+06         2.11118e+08
    6.39              291980             227.121        -7.44478e+06          2.1134e+08
    6.41              295521             224.665        -7.50233e+06         2.11743e+08
    6.43              298973             222.409         -7.5616e+06         2.12317e+08
    6.45              302316             220.362        -7.62212e+06         2.13048e+08
    6.47              305531             218.532        -7.68343e+06         2.13923e+08
    6.49              308602             216.918        -7.74505e+06         2.14928e+08
    6.51              311512             215.514        -7.80649e+06         2.16047e+08
    6.53              314244             214.309        -7.86727e+06         2.17263e+08
    6.55              316784             213.286        -7.92691e+06         2.18561e+08
    6.57              319119             212.426        -7.98494e+06         2.19921e+08
    6.59              321237             211.706         -8.0409e+06         2.21328e+08
    6.61              323125               211.1        -8.09433e+06         2.22762e+08
    6.63              324776             210.579        -8.14478e+06         2.24205e+08
    6.65              326179             210.115        -8.19184e+06         2.25639e+08
    6.67              327327             209.678        -8.23507e+06         2.27045e+08
    6.69              328215             209.238        -8.27408e+06         2.28406e+08
    6.71              328837             208.765        -8.30849e+06         2.29702e+08
    6.73              329188              208.23        -8.33793e+06         2.30916e+08
    6.75              329267             207.609        -8.36205e+06          2.3203e+08
    6.77              329070             206.874        -8.38054e+06         2.33028e+08
    6.79              328596             206.005        -8.39307e+06         2.33893e+08
    6.81              327846             204.981        -8.39937e+06         2.34609e+08
    6.83              326819             203.787        -8.39917e+06         2.35162e+08
    6.85              325515             202.407        -8.39222e+06         2.35538e+08
    6.87              323937             200.832        -8.37831e+06         2.35722e+08
    6.89              322086             199.054        -8.35724e+06         2.35704e+08
    6.91              319965              197.07        -8.32884e+06         2.35472e+08
    6.93              317578             194.878        -8.29298e+06         2.35018e+08
    6.95              314926              192.48        -8.24952e+06         2.34331e+08
    6.97              312015              189.88         -8.1984e+06         2.33407e+08
    6.99              308848             187.086        -8.13956e+06         2.32238e+08
    7.01              305431             184.108        -8.07296e+06         2.30821e+08
    7.03              301768             180.956        -7.99864e+06         2.29154e+08
    7.05              297866             177.643        -7.91662e+06         2.27235e+08
    7.07              293730             174.185          -7.827e+06         2.25066e+08
    7.09              289368             170.597        -7.72989e+06          2.2265e+08
    7.11              284787             166.895        -7.62546e+06         2.19989e+08
    7.13              279996             163.097        -7.51389e+06         2.17091e+08
    7.15              275003             159.221        -7.39542e+06         2.13962e+08
    7.17              269817             155.284        -7.27034e+06         2.10613e+08
    7.19              264450             151.305        -7.13894e+06         2.07052e+08
    7.21              258912             147.301         -7.0016e+06         2.03294e+08
    7.23              253215              143.29        -6.85869e+06         1.99352e+08
    7.25              247373             139.289        -6.71066e+06          1.9524e+08
    7.27              241399             135.315        -6.55796e+06         1.90976e+08
    7.29              235307             131.384         -6.4011e+06         1.86576e+08
    7.31              229113             127.512         -6.2406e+06         1.82061e+08
    7.33              222834             123.713        -6.07703e+06          1.7745e+08
    7.35              216486             120.003        -5.91097e+06         1.72763e+08
    7.37              210087             116.393        -5.74305e+06         1.68021e+08
    7.39              203655             112.899        -5.57388e+06         1.63248e+08
    7.41              197209              109.53        -5.40411e+06         1.58465e+08
    7.43              190768             106.299        -5.23441e+06         1.53695e+08
    7.45              184353             103.215        -5.06544e+06          1.4896e+08
    7.47              177983             100.287        -4.89787e+06         1.44284e+08
    7.49              171677             97.5247        -4.73238e+06         1.39689e+08
    7.51              165457             94.9331        -4.56962e+06         1.35198e+08
    7.53              159342             92.5181        -4.41026e+06         1.30832e+08
    7.55              153351             90.2832        -4.25493e+06         1.26612e+08
    7.57              147504             88.2303        -4.10427e+06         1.22559e+08
    7.59              141819             86.3591        -3.95886e+06         1.18693e+08
    7.61              136314             84.6671        -3.81929e+06         1.15031e+08
    7.63              131006             83.1491        -3.68609e+06         1.11592e+08
    7.65              125912             81.7972        -3.55978e+06         1.08391e+08
    7.67              121046             80.6004        -3.44081e+06         1.05443e+08
    7.69              116422             79.5444        -3.32962e+06         1.02761e+08
    7.71              112053             78.6119        -3.22659e+06         1.00357e+08
    7.73              107950             77.7821        -3.13205e+06          9.8241e+07
    7.75              104123             77.0312        -3.04628e+06         9.64214e+07
    7.77              100578             76.3326        -2.96952e+06         9.49048e+07
    7.79             97324.2             75.6579        -2.90195e+06         9.36959e+07
    7.81             94364.5             74.9772        -2.84369e+06         9.27978e+07
    7.83             91702.6             74.2603         -2.7948e+06         9.22117e+07
    7.85             89339.6              73.478        -2.75531e+06         9.19368e+07
    7.87             87275.1             72.6036        -2.72516e+06         9.19706e+07
    7.89             85506.9             71.6137        -2.70425e+06         9.23089e+07
    7.91             84031.2             70.4898        -2.69243e+06         9.29453e+07
    7.93             82842.4             69.2194        -2.68949e+06         9.38721e+07
    7.95             81933.3             67.7963        -2.69518e+06         9.50796e+07
    7.97             81295.2             66.2215        -2.70917e+06         9.65566e+07
    7.99             80917.6             64.5025        -2.73111e+06         9.82903e+07
    8.01             80789.1              62.653         -2.7606e+06         1.00266e+08
    8.03             80896.5             60.6921        -2.79719e+06         1.02469e+08
    8.05             81225.8             58.6429         -2.8404e+06         1.04882e+08
    8.07             81761.6             56.5311         -2.8897e+06         1.07486e+08
    8.09             82487.6             54.3841        -2.94455e+06         1.10263e+08
    8.11             83386.9              52.229        -3.00437e+06         1.13193e+08
    8.13             84441.7             50.0922        -3.06856e+06         1.16255e+08
    8.15             85633.6             47.9981         -3.1365e+06         1.19428e+08
    8.17             86943.9             45.9683        -3.20757e+06          1.2269e+08
    8.19             88353.6             44.0219        -3.28113e+06          1.2602e+08
    8.21             89843.6             42.1744        -3.35653e+06         1.29395e+08
    8.23             91394.8             40.4384        -3.43314e+06         1.32793e+08
    8.25             92988.4             38.8231        -3.51033e+06         1.36193e+08
    8.27             94605.9             37.3353        -3.58747e+06         1.39574e+08
    8.29               96229              35.979        -3.66396e+06         1.42915e+08
    8.31             97840.4             34.7559        -3.73921e+06         1.46196e+08
    8.33             99423.1             33.6658        -3.81267e+06         1.49397e+08
    8.35              100961             32.7069         -3.8838e+06         1.52501e+08
    8.37              102440              31.876        -3.95209e+06          1.5549e+08
    8.39              103845              31.169        -4.01709e+06         1.58348e+08
    8.41              105164             30.5806        -4.07837e+06         1.61061e+08
    8.43              106384             30.1049        -4.13554e+06         1.63615e+08
    8.45              107496             29.7357        -4.18825e+06         1.65999e+08
    8.47              108490             29.4661         -4.2362e+06         1.68202e+08
    8.49              109358             29.2891        -4.27913e+06         1.70216e+08
    8.51              110093             29.1974        -4.31683e+06         1.72032e+08
    8.53              110691             29.1834        -4.34912e+06         1.73645e+08
    8.55              111147             29.2397        -4.37589e+06          1.7505e+08
    8.57              111458             29.3587        -4.39705e+06         1.76245e+08
    8.59              111624             29.5328        -4.41256e+06         1.77229e+08
    8.61              111643             29.7543        -4.42241e+06            1.78e+08
    8.63              111516             30.0159        -4.42665e+06          1.7856e+08
    8.65              111246             30.3099        -4.42535e+06         1.78911e+08
    8.67              110835             30.6291        -4.41861e+06         1.79056e+08
    8.69              110287             30.9663        -4.40657e+06         1.79001e+08
    8.71              109606             31.3145        -4.38939e+06         1.78749e+08
    8.73              108797             31.6668        -4.36726e+06         1.78307e+08
    8.75              107867             32.0167        -4.34037e+06         1.77682e+08
    8.77              106821             32.3579        -4.30895e+06          1.7688e+08
    8.79              105666             32.6844        -4.27324e+06          1.7591e+08
    8.81              104410             32.9907        -4.23347e+06         1.74779e+08
    8.83              103059             33.2711        -4.18991e+06         1.73495e+08
    8.85              101621             33.5216        -4.14281e+06         1.72066e+08
    8.87              100104             33.7377        -4.09243e+06         1.70502e+08
    8.89             98515.1             33.9155        -4.03903e+06          1.6881e+08
    8.91             96861.3             34.0517        -3.98286e+06         1.66998e+08
    8.93             95150.2             34.1436        -3.92418e+06         1.65075e+08
    8.95             93388.7              34.189        -3.86322e+06         1.63049e+08
    8.97             91583.8             34.1863        -3.80023e+06         1.60927e+08
    8.99               89742             34.1345        -3.73542e+06         1.58717e+08
    9.01             87869.5             34.0333        -3.66903e+06         1.56426e+08
    9.03             85972.3             33.8826        -3.60125e+06         1.54061e+08
    9.05             84055.9             33.6831        -3.53228e+06         1.51628e+08
    9.07             82125.7              33.436        -3.46231e+06         1.49134e+08
    9.09             80186.5             33.1428        -3.39152e+06         1.46585e+08
    9.11             78242.8             32.8056        -3.32006e+06         1.43987e+08
    9.13               76299             32.4268        -3.24809e+06         1.41345e+08
    9.15               74359             32.0092        -3.17576e+06         1.38664e+08
    9.17             72426.3             31.5558        -3.10321e+06         1.35951e+08
    9.19             70504.3             31.0699        -3.03056e+06         1.33209e+08
    9.21             68596.1             30.5548        -2.95793e+06         1.30444e+08
    9.23             66704.6             30.0144        -2.88545e+06          1.2766e+08
    9.25             64832.4             29.4521        -2.81323e+06         1.24863e+08
    9.27             62981.9             28.8718        -2.74136e+06         1.22056e+08
    9.29             61155.3             28.2771        -2.66995e+06         1.19245e+08
    9.31               59355             27.6718         -2.5991e+06         1.16434e+08
    9.33             57582.9             27.0595        -2.52891e+06         1.13627e+08
    9.35             55840.9             26.4437        -2.45946e+06         1.10829e+08
    9.37             54130.8             25.8277        -2.39085e+06         1.08045e+08
    9.39             52454.3             25.2149        -2.32316e+06          1.0528e+08
    9.41             50813.2             24.6084        -2.25649e+06         1.02536e+08
    9.43               49209              24.011        -2.19092e+06         9.98205e+07
    9.45             47643.2             23.4255        -2.12653e+06         9.71361e+07
    9.47             46117.5             22.8545        -2.06342e+06         9.44879e+07
    9.49             44633.1             22.3003        -2.00165e+06         9.18802e+07
    9.51             43191.5             21.7651        -1.94131e+06         8.93173e+07
    9.53             41793.9             21.2505        -1.88248e+06         8.68035e+07
    9.55             40441.8             20.7591        -1.82523e+06          8.4343e+07
    9.57             39136.3              20.292        -1.76963e+06         8.19397e+07
    9.59             37878.4             19.8506        -1.71575e+06         7.95976e+07
    9.61             36669.2              19.436        -1.66366e+06         7.73203e+07
    9.63             35509.6             19.0493        -1.61341e+06         7.51114e+07
    9.65             34400.3             18.6912        -1.56506e+06          7.2974e+07
    9.67             33342.2             18.3623        -1.51866e+06         7.09114e+07
    9.69             32335.7             18.0629        -1.47426e+06         6.89262e+07
    9.71             31381.3             17.7932        -1.43189e+06          6.7021e+07
    9.73             30479.2             17.5531        -1.39158e+06          6.5198e+07
    9.75             29629.7             17.3422        -1.35337e+06         6.34593e+07
    9.77             28832.5             17.1601        -1.31726e+06         6.18064e+07
    9.79             28087.6             17.0061        -1.28326e+06         6.02406e+07
    9.81             27394.6             16.8793        -1.25139e+06         5.87629e+07
    9.83             26752.9             16.7786        -1.22164e+06          5.7374e+07
    9.85             26161.8             16.7028        -1.19399e+06         5.60741e+07
    9.87             25620.4             16.6507        -1.16842e+06         5.48632e+07
    9.89             25127.7             16.6209        -1.14491e+06          5.3741e+07
    9.91             24682.4             16.6118        -1.12343e+06         5.27066e+07
    9.93             24283.2              16.622        -1.10392e+06          5.1759e+07
    9.95             23928.4               16.65        -1.08634e+06         5.08968e+07
    9.97             23616.4             16.6944        -1.07064e+06         5.01183e+07
    9.99             23345.3             16.7539        -1.05674e+06         4.94215e+07
   10.01             23113.1             16.8271        -1.04459e+06          4.8804e+07
   10.03             22917.8              16.913         -1.0341e+06         4.82632e+07
   10.05             22757.1             17.0104         -1.0252e+06         4.77962e+07
   10.07             22628.7             17.1183        -1.01779e+06         4.73998e+07
   10.09             22530.3              17.236         -1.0118e+06         4.70708e+07
   10.11             22459.3             17.3625        -1.00711e+06         4.68055e+07
   10.13             22413.4             17.4972        -1.00365e+06         4.66001e+07
   10.15               22390             17.6394        -1.00131e+06         4.64507e+07
   10.17             22386.4             17.7883             -999979         4.63532e+07
   10.19             22400.3             17.9433             -999565         4.63033e+07
   10.21             22428.9             18.1037             -999960         4.62967e+07
   10.23             22469.8             18.2686        -1.00106e+06         4.63291e+07
   10.25             22520.6             18.4372        -1.00276e+06         4.63959e+07
   10.27             22578.7             18.6085        -1.00496e+06         4.64926e+07
   10.29             22641.8             18.7817        -1.00755e+06         4.66149e+07
   10.31             22707.6             18.9555        -1.01044e+06         4.67581e+07
   10.33             22773.9             19.1287        -1.01353e+06         4.69179e+07
   10.35             22838.6             19.3002        -1.01672e+06           4.709e+07
   10.37             22899.7             19.4687        -1.01992e+06         4.72699e+07
   10.39             22955.4             19.6327        -1.02305e+06         4.74536e+07
   10.41             23003.8             19.7909        -1.02601e+06         4.76369e+07
   10.43             23043.3             19.9419        -1.02874e+06         4.78161e+07
   10.45             23072.4             20.0845        -1.03116e+06         4.79872e+07
   10.47             23089.7             20.2172        -1.03319e+06         4.81469e+07
   10.49             23093.9             20.3388        -1.03477e+06         4.82916e+07
   10.51               23084             20.4483        -1.03584e+06         4.84183e+07
   10.53             23058.9             20.5445        -1.03635e+06         4.85239e+07
   10.55             23017.7             20.6266        -1.03625e+06         4.86058e+07
   10.57             22959.9             20.6937        -1.03549e+06         4.86614e+07
   10.59             22884.6             20.7454        -1.03404e+06         4.86886e+07
   10.61             22791.6             20.7811        -1.03187e+06         4.86853e+07
   10.63             22680.4             20.8006        -1.02893e+06         4.86498e+07
   10.65             22550.8             20.8038        -1.02523e+06         4.85808e+07
   10.67             22402.6             20.7909        -1.02073e+06         4.84769e+07
   10.69             22235.9             20.7621        -1.01543e+06         4.83373e+07
   10.71             22050.8              20.718        -1.00932e+06         4.81614e+07
   10.73             21847.4              20.659         -1.0024e+06         4.79488e+07
   10.75             21626.1             20.5861             -994672         4.76993e+07
   10.77             21387.1             20.5001             -986151         4.74131e+07
   10.79             21131.1             20.4021             -976852         4.70908e+07
   10.81             20858.6             20.2933             -966790         4.67329e+07
   10.83             20570.2             20.1748             -955989         4.63403e+07
   10.85             20266.6              20.048             -944477         4.59143e+07
   10.87             19948.6             19.9141             -932283         4.54561e+07
   10.89               19617             19.7745             -919445         4.49674e+07
   10.91             19272.8             19.6305             -905999         4.44499e+07
   10.93             18916.9             19.4832             -891988         4.39055e+07
   10.95             18550.3             19.3339             -877455         4.33363e+07
   10.97             18174.1             19.1837             -862449         4.27447e+07
   10.99             17789.3             19.0335             -847017         4.21328e+07
   11.01             17397.1             18.8841             -831212         4.15031e+07
   11.03             16998.6             18.7361             -815085         4.08582e+07
   11.05               16595             18.5901             -798689         4.02006e+07
   11.07             16187.4             18.4462             -782078         3.95327e+07
   11.09               15777             18.3046             -765306         3.88572e+07
   11.11               15365              18.165             -748428         3.81766e+07
   11.13             14952.5             18.0271             -731494         3.74933e+07
   11.15             14540.6             17.8904             -714558         3.68098e+07
   11.17             14130.5             17.7539             -697669         3.61282e+07
   11.19             13723.1             17.6167             -680876         3.54506e+07
   11.21             13319.6             17.4777             -664223         3.47792e+07
   11.23             12920.9             17.3355             -647754         3.41157e+07
   11.25             12527.8             17.1885             -631508         3.34618e+07
   11.27             12141.3             17.0354             -615522         3.28188e+07
   11.29               11762             16.8744             -599828          3.2188e+07
   11.31             11390.8             16.7039             -584456         3.15705e+07
   11.33             11028.2             16.5223             -569428         3.09671e+07
   11.35             10674.7             16.3282             -554767         3.03782e+07
   11.37             10330.9             16.1201             -540488         2.98042e+07
   11.39             9997.02             15.8969             -526602         2.92452e+07
   11.41             9673.43             15.6575             -513119         2.87012e+07
   11.43             9360.31             15.4012             -500041         2.81719e+07
   11.45             9057.77             15.1276             -487368         2.76567e+07
   11.47             8765.83             14.8366             -475094         2.71549e+07
   11.49             8484.44             14.5283             -463213         2.66657e+07
   11.51              8213.5             14.2034             -451713         2.61882e+07
   11.53              7952.8             13.8627             -440580         2.57211e+07
   11.55              7702.1             13.5075             -429796         2.52633e+07
   11.57             7461.07             13.1392             -419343         2.48135e+07
   11.59             7229.36             12.7596             -409198         2.43703e+07
   11.61             7006.56             12.3706             -399340         2.39324e+07
   11.63             6792.22             11.9744             -389745         2.34983e+07
   11.65             6585.87             11.5731             -380387         2.30667e+07
   11.67             6387.02              11.169             -371242         2.26363e+07
   11.69             6195.16             10.7642             -362286         2.22058e+07
   11.71             6009.78              10.361             -353494          2.1774e+07
   11.73             5830.35             9.96136             -344842         2.13397e+07
   11.75             5656.38             9.56713             -336309         2.09021e+07
   11.77             5487.37             9.18001             -327873         2.04602e+07
   11.79             5322.85             8.80145             -319515         2.00134e+07
   11.81             5162.37             8.43266             -311219          1.9561e+07
   11.83             5005.51             8.07466             -302968         1.91026e+07
   11.85             4851.88             7.72817             -294750         1.86381e+07
   11.87             4701.14             7.39376             -286556         1.81673e+07
   11.89             4552.97             7.07175             -278376         1.76903e+07
   11.91             4407.11             6.76227             -270206         1.72073e+07
   11.93             4263.32              6.4653             -262042         1.67187e+07
   11.95             4121.42             6.18069             -253884          1.6225e+07
   11.97             3981.27             5.90816             -245733         1.57269e+07
   11.99             3842.75             5.64736             -237593         1.52251e+07
   12.01             3705.81             5.39787             -229471         1.47206e+07
   12.03             3570.42             5.15923             -221374         1.42144e+07
   12.05             3436.59             4.93097             -213312         1.37075e+07
   12.07             3304.36             4.71261             -205295         1.32011e+07
   12.09              3173.8             4.50369             -197337         1.26964e+07
   12.11                3045             4.30377             -189450         1.21946e+07
   12.13             2918.08             4.11244             -181649         1.16971e+07
   12.15             2793.18             3.92933             -173948          1.1205e+07
   12.17             2670.45             3.75413             -166363         1.07197e+07
   12.19             2550.05             3.58653             -158909         1.02424e+07
   12.21             2432.15             3.42631             -151602          9.7743e+06
   12.23             2316.93             3.27326             -144456          9.3166e+06
   12.25             2204.55             3.12721             -137485          8.8704e+06
   12.27              2095.2             2.98802             -130704         8.43674e+06
   12.29             1989.04             2.85559             -124126         8.01659e+06
   12.31             1886.22             2.72982             -117762         7.61084e+06
   12.33             1786.89             2.61063             -111624         7.22027e+06
   12.35             1691.19             2.49794             -105721         6.84559e+06
   12.37             1599.24             2.39167             -100063         6.48741e+06
   12.39             1511.15             2.29173              -94656         6.14621e+06
   12.41             1426.99             2.19801            -89506.4         5.82241e+06
   12.43             1346.85             2.11038            -84618.8          5.5163e+06
   12.45             1270.76             2.02869            -79996.3         5.22807e+06
   12.47             1198.77             1.95274            -75640.9         4.95784e+06
   12.49             1130.88              1.8823            -71553.1         4.70561e+06
   12.51              1067.1             1.81712              -67732         4.47129e+06
   12.53              1007.4             1.75689            -64175.7         4.25471e+06
   12.55             951.734             1.70126              -60881         4.05563e+06
   12.57             900.055             1.64988            -57843.5          3.8737e+06
   12.59              852.29             1.60235            -55057.9         3.70854e+06
   12.61             808.345              1.5582            -52517.7         3.55966e+06
   12.63              768.14             1.51717            -50216.5         3.42659e+06
   12.65             731.555             1.47881              -48146         3.30873e+06
   12.67             698.473             1.44278            -46297.6         3.20547e+06
   12.69             668.765              1.4088            -44662.4         3.11617e+06
   12.71             642.304             1.37676            -43231.1         3.04015e+06
   12.73             618.947              1.3465            -41993.8         2.97671e+06
   12.75              598.54             1.31795            -40939.8         2.92512e+06
   12.77             580.948              1.2913            -40059.5         2.88465e+06
   12.79             566.021              1.2668            -39342.3         2.85457e+06
   12.81             553.614              1.2448              -38778         2.83414e+06
   12.83             543.583             1.22575            -38356.4         2.82263e+06
   12.85             535.786             1.21016            -38067.4         2.81932e+06
   12.87             530.086             1.19861            -37901.4         2.82351e+06
   12.89             526.352             1.19169            -37848.8         2.83451e+06
   12.91             524.458             1.18996            -37900.6         2.85166e+06
   12.93             524.286             1.19399            -38048.2         2.87433e+06
   12.95             525.726             1.20426            -38283.6         2.90191e+06
   12.97             528.676              1.2212              -38599         2.93383e+06
   12.99             533.043             1.24515            -38987.6         2.96956e+06
   13.01             538.747             1.27636            -39442.9         3.00861e+06
   13.03             545.715             1.31499            -39959.2         3.05052e+06
   13.05             553.884             1.36109            -40531.3         3.09488e+06
   13.07             563.204             1.41465            -41154.9         3.14132e+06
   13.09             573.635             1.47553            -41826.2         3.18951e+06
   13.11             585.149             1.54353            -42542.2         3.23918e+06
   13.13             597.728             1.61836            -43300.7          3.2901e+06
   13.15             611.364             1.69965            -44099.8         3.34209e+06
   13.17             626.057             1.78692            -44938.6         3.39498e+06
   13.19             641.831             1.87974            -45817.1         3.44872e+06
   13.21             658.708             1.97754            -46735.6         3.50325e+06
   13.23             676.721             2.07969            -47695.1         3.55855e+06
   13.25             695.914             2.18553            -48697.2         3.61467e+06
   13.27             716.342              2.2944            -49744.3          3.6717e+06
   13.29             738.096             2.40593            -50840.1         3.72979e+06
   13.31             761.198             2.51883            -51986.2         3.78903e+06
   13.33             785.751             2.63269            -53187.4         3.84966e+06
   13.35             811.842             2.74686              -54448          3.9119e+06
   13.37             839.567             2.86073            -55772.8         3.97602e+06
   13.39             869.029             2.97375              -57167         4.04231e+06
   13.41             900.337             3.08547            -58636.2         4.11109e+06
   13.43             933.608              3.1955            -60186.3          4.1827e+06
   13.45             968.964             3.30358            -61823.4         4.25751e+06
   13.47             1006.53             3.40957            -63554.1          4.3359e+06
   13.49             1046.46             3.51344            -65385.1         4.41826e+06
   13.51             1088.87             3.61532            -67323.4           4.505e+06
   13.53             1133.93             3.71549              -69376         4.59653e+06
   13.55             1181.78             3.81432            -71550.2         4.69329e+06
   13.57              1232.6             3.91236            -73853.6          4.7957e+06
   13.59             1286.55             4.01028            -76293.7         4.90419e+06
   13.61             1343.81             4.10889            -78878.2         5.01919e+06
   13.63             1404.57             4.20911            -81614.9         5.14111e+06
   13.65             1469.02             4.31195            -84511.8         5.27038e+06
   13.67             1537.38             4.41852            -87576.9         5.40739e+06
   13.69             1609.86                4.53            -90818.5         5.55257e+06
   13.71             1686.69             4.64761            -94244.9         5.70628e+06
   13.73              1768.1             4.77263            -97864.3          5.8689e+06
   13.75             1854.36             4.90632             -101685          6.0408e+06
   13.77             1945.73             5.04997             -105717         6.22231e+06
   13.79             2042.48              5.2048             -109968         6.41376e+06
   13.81             2144.92             5.37201             -114447         6.61547e+06
   13.83             2253.35             5.55271             -119164         6.82773e+06
   13.85             2368.09             5.74792             -124127         7.05081e+06
   13.87             2489.49             5.95857             -129347         7.28498e+06
   13.89             2617.88             6.18541             -134833         7.53046e+06
   13.91             2753.63             6.42906             -140594         7.78748e+06
   13.93             2897.13             6.68999             -146642         8.05624e+06
   13.95             3048.75             6.96848             -152986         8.33693e+06
   13.97             3208.93             7.26475             -159637         8.62975e+06
   13.99             3378.01             7.57837             -166603         8.93476e+06
   14.01             3556.42             7.90914             -173896         9.25212e+06
   14.03             3744.58             8.25649             -181525         9.58194e+06
   14.05              3942.9             8.61965             -189502          9.9243e+06
   14.07             4151.79             8.99762             -197834         1.02793e+07
   14.09             4371.65              9.3892             -206533         1.06469e+07
   14.11             4602.88               9.793             -215607         1.10271e+07
   14.13             4845.86             10.2074             -225064           1.142e+07
   14.15             5100.94             10.6307             -234913         1.18255e+07
   14.17             5368.49              11.061             -245162         1.22436e+07
   14.19              5648.8             11.4963             -255816         1.26741e+07
   14.21             5942.17             11.9344             -266882         1.31171e+07
   14.23             6248.86             12.3731             -278364         1.35722e+07
   14.25             6569.08             12.8101             -290266         1.40395e+07
   14.27                6903             13.2433             -302592         1.45186e+07
   14.29             7250.78             13.6702             -315341         1.50094e+07
   14.31             7612.49             14.0886             -328514         1.55116e+07
   14.33             7988.17             14.4964             -342110         1.60249e+07
   14.35             8377.81             14.8914             -356126          1.6549e+07
   14.37             8781.36             15.2715             -370558         1.70836e+07
   14.39             9198.69             15.6349             -385400         1.76284e+07
   14.41             9629.64             15.9798             -400646         1.81829e+07
   14.43               10074             16.3045             -416286         1.87467e+07
   14.45             10531.5             16.6078             -432311         1.93194e+07
   14.47             11001.7             16.8881             -448710         1.99006e+07
   14.49             11484.4             17.1447             -465469         2.04898e+07
   14.51             11979.2             17.3764             -482577         2.10866e+07
   14.53             12485.5             17.5828             -500017         2.16903e+07
   14.55             13002.8             17.7633             -517775         2.23006e+07
   14.57             13530.7             17.9177             -535833         2.29171e+07
   14.59             14068.6              18.046             -554176          2.3539e+07
   14.61             14615.9             18.1483             -572784         2.41662e+07
   14.63               15172              18.225             -591641         2.47979e+07
   14.65             15736.3             18.2766             -610729         2.54339e+07
   14.67             16308.2             18.3039             -630028         2.60736e+07
   14.69               16887             18.3078             -649521         2.67167e+07
   14.71             17472.2             18.2895             -669190         2.73628e+07
   14.73               18063               18.25             -689017         2.80115e+07
   14.75               18659             18.1908             -708985         2.86625e+07
   14.77             19259.5             18.1135             -729078         2.93155e+07
   14.79               19864             18.0197             -749280         2.99702e+07
   14.81             20471.9             17.9111             -769574         3.06264e+07
   14.83             21082.6             17.7895             -789947         3.12839e+07
   14.85             21695.7              17.657             -810386         3.19425e+07
   14.87             22310.7             17.5156             -830876         3.26021e+07
   14.89             22927.2             17.3673             -851406         3.32624e+07
   14.91             23544.7             17.2144             -871966         3.39236e+07
   14.93             24162.8             17.0589             -892543         3.45854e+07
   14.95             24781.2             16.9032             -913128         3.52479e+07
   14.97             25399.6             16.7495             -933713         3.59109e+07
   14.99             26017.6             16.6001             -954289         3.65745e+07
   15.01               26635             16.4573             -974847         3.72387e+07
   15.03             27251.5             16.3234             -995382         3.79034e+07
   15.05             27866.9             16.2006        -1.01588e+06         3.85686e+07
   15.07               28481             16.0912        -1.03635e+06         3.92344e+07
   15.09             29093.6             15.9975        -1.05677e+06         3.99007e+07
   15.11             29704.6             15.9217        -1.07714e+06         4.05676e+07
   15.13             30313.7             15.8657        -1.09746e+06         4.12349e+07
   15.15             30920.9             15.8318        -1.11772e+06         4.19028e+07
   15.17             31526.1             15.8219        -1.13791e+06          4.2571e+07
   15.19             32129.1             15.8379        -1.15804e+06         4.32396e+07
   15.21               32730             15.8816        -1.17808e+06         4.39085e+07
   15.23             33328.6             15.9546        -1.19805e+06         4.45776e+07
   15.25             33924.8             16.0585        -1.21794e+06         4.52467e+07
   15.27             34518.7             16.1946        -1.23774e+06         4.59158e+07
   15.29             35110.2             16.3642        -1.25744e+06         4.65846e+07
   15.31             35699.3             16.5683        -1.27705e+06          4.7253e+07
   15.33             36285.9             16.8078        -1.29656e+06         4.79207e+07
   15.35               36870             17.0833        -1.31596e+06         4.85875e+07
   15.37             37451.6             17.3952        -1.33525e+06          4.9253e+07
   15.39             38030.5             17.7436        -1.35441e+06         4.99169e+07
   15.41             38606.8             18.1285        -1.37346e+06         5.05787e+07
   15.43             39180.4             18.5499        -1.39236e+06          5.1238e+07
   15.45             39750.9             19.0064        -1.41112e+06         5.18942e+07
   15.47             40318.3             19.4976        -1.42973e+06         5.25467e+07
   15.49             40882.2             20.0222        -1.44816e+06         5.31948e+07
   15.51             41442.4             20.5787        -1.46641e+06         5.38376e+07
   15.53             41998.4             21.1653        -1.48446e+06         5.44743e+07
   15.55             42549.7               21.78        -1.50228e+06         5.51038e+07
   15.57             43095.6             22.4203        -1.51986e+06         5.57249e+07
   15.59             43635.5             23.0836        -1.53715e+06         5.63363e+07
   15.61             44168.5              23.767        -1.55414e+06         5.69367e+07
   15.63             44693.5             24.4674        -1.57079e+06         5.75245e+07
   15.65             45209.5             25.1813        -1.58705e+06         5.80979e+07
   15.67             45715.1             25.9052        -1.60288e+06          5.8655e+07
   15.69             46208.8             26.6352        -1.61824e+06         5.91939e+07
   15.71             46689.2             27.3674        -1.63306e+06         5.97124e+07
   15.73             47154.3             28.0979        -1.64729e+06         6.02082e+07
   15.75             47602.4             28.8224        -1.66087e+06         6.06788e+07
   15.77             48031.4             29.5368        -1.67373e+06         6.11217e+07
   15.79               48439             30.2369         -1.6858e+06         6.15343e+07
   15.81               48823             30.9187          -1.697e+06         6.19138e+07
   15.83               49181             31.5781        -1.70727e+06         6.22575e+07
   15.85             49510.6             32.2111        -1.71652e+06         6.25625e+07
   15.87             49809.1             32.8142        -1.72466e+06         6.28259e+07
   15.89               50074             33.3838        -1.73163e+06          6.3045e+07
   15.91             50302.8             33.9167        -1.73735e+06          6.3217e+07
   15.93             50492.9               34.41        -1.74172e+06         6.33393e+07
   15.95             50641.9              34.861        -1.74469e+06         6.34094e+07
   15.97             50747.4             35.2677        -1.74617e+06         6.34248e+07
   15.99             50807.2             35.6282         -1.7461e+06         6.33835e+07
   16.01             50819.2             35.9413        -1.74442e+06         6.32835e+07
   16.03             50781.8             36.2062        -1.74107e+06         6.31232e+07
   16.05             50693.1             36.4223        -1.73602e+06         6.29013e+07
   16.07             50552.1             36.5901        -1.72922e+06         6.26168e+07
   16.09             50357.7             36.7101        -1.72064e+06         6.22692e+07
   16.11             50109.3             36.7837        -1.71028e+06         6.18581e+07
   16.13             49806.7             36.8125        -1.69813e+06         6.13839e+07
   16.15               49450             36.7991        -1.68419e+06         6.08472e+07
   16.17             49039.9             36.7462         -1.6685e+06         6.02491e+07
   16.19             48577.3             36.6572        -1.65108e+06          5.9591e+07
   16.21             48063.7             36.5362        -1.63199e+06         5.88751e+07
   16.23               47501             36.3875        -1.61129e+06         5.81038e+07
   16.25             46891.6             36.2162        -1.58905e+06         5.72799e+07
   16.27             46238.3             36.0275        -1.56536e+06         5.64067e+07
   16.29             45544.4             35.8273        -1.54032e+06         5.54879e+07
   16.31             44813.4             35.6219        -1.51405e+06         5.45274e+07
   16.33             44049.5             35.4178        -1.48666e+06         5.35298e+07
   16.35             43257.1              35.222         -1.4583e+06         5.24995e+07
   16.37               42441             35.0418        -1.42911e+06         5.14416e+07
   16.39             41606.1             34.8845        -1.39923e+06         5.03611e+07
   16.41               40758             34.7578        -1.36882e+06         4.92632e+07
   16.43             39902.1             34.6696        -1.33804e+06         4.81533e+07
   16.45             39044.1             34.6276        -1.30707e+06         4.70368e+07
   16.47               38190             34.6397        -1.27606e+06         4.59191e+07
   16.49             37345.8             34.7135        -1.24519e+06         4.48056e+07
   16.51             36517.4             34.8565        -1.21461e+06         4.37015e+07
   16.53             35710.9             35.0757         -1.1845e+06         4.26118e+07
   16.55             34932.3             35.3778        -1.15502e+06         4.15416e+07
   16.57             34187.3             35.7688        -1.12632e+06         4.04954e+07
   16.59             33481.8             36.2536        -1.09854e+06         3.94778e+07
   16.61             32821.3             36.8363        -1.07184e+06         3.84926e+07
   16.63             32211.1             37.5198        -1.04634e+06         3.75436e+07
   16.65             31656.2             38.3056        -1.02217e+06         3.66343e+07
   16.67             31161.4             39.1936             -999432         3.57675e+07
   16.69             30730.9             40.1818             -978233         3.49458e+07
   16.71               30369             41.2667             -958659         3.41713e+07
   16.73             30079.1             42.4428             -940785         3.34456e+07
   16.75             29864.5             43.7029             -924674         3.27701e+07
   16.77             29727.9             45.0379             -910375         3.21455e+07
   16.79             29671.6             46.4377             -897926         3.15723e+07
   16.81             29697.4             47.8899             -887348         3.10504e+07
   16.83             29806.5             49.3821             -878650         3.05793e+07
   16.85             29999.7             50.9011             -871829         3.01584e+07
   16.87             30277.3             52.4334             -866869         2.97864e+07
   16.89             30639.1             53.9657             -863742         2.94619e+07
   16.91             31084.3             55.4852             -862408         2.91831e+07
   16.93             31611.5             56.9798             -862815         2.89478e+07
   16.95             32218.9             58.4384             -864901         2.87539e+07
   16.97             32904.1             59.8509             -868594         2.85988e+07
   16.99             33664.4             61.2085             -873813         2.84797e+07
   17.01             34496.2             62.5033             -880467         2.83938e+07
   17.03             35395.9             63.7289             -888459         2.83381e+07
   17.05               36359             64.8796             -897683         2.83095e+07
   17.07             37380.8             65.9509             -908028         2.83049e+07
   17.09               38456             66.9391             -919377         2.83211e+07
   17.11               39579             67.8412             -931609         2.83549e+07
   17.13             40743.8             68.6552             -944596         2.84032e+07
   17.15               41944             69.3792             -958212         2.84628e+07
   17.17             43172.9             70.0125             -972324         2.85307e+07
   17.19             44423.7             70.5545             -986799         2.86039e+07
   17.21             45688.9             71.0053        -1.00151e+06         2.86796e+07
   17.23             46961.4             71.3653        -1.01631e+06         2.87549e+07
   17.25             48233.4             71.6357        -1.03108e+06         2.88274e+07
   17.27             49497.3             71.8179        -1.04568e+06         2.88945e+07
   17.29             50745.4             71.9139        -1.05999e+06         2.89541e+07
   17.31               51970              71.926        -1.07388e+06         2.90039e+07
   17.33             53163.4             71.8573        -1.08723e+06          2.9042e+07
   17.35             54318.1              71.711        -1.09993e+06         2.90668e+07
   17.37             55426.9             71.4909        -1.11187e+06         2.90768e+07
   17.39             56482.5             71.2014        -1.12294e+06         2.90704e+07
   17.41             57478.3              70.847        -1.13305e+06         2.90468e+07
   17.43             58407.7             70.4328         -1.1421e+06         2.90049e+07
   17.45             59264.8             69.9641        -1.15003e+06          2.8944e+07
   17.47             60044.1             69.4468        -1.15675e+06         2.88637e+07
   17.49             60740.7             68.8866        -1.16221e+06         2.87636e+07
   17.51             61350.1               68.29        -1.16637e+06         2.86438e+07
   17.53             61868.7             67.6631        -1.16916e+06         2.85042e+07
   17.55             62293.5             67.0125        -1.17058e+06         2.83452e+07
   17.57               62622             66.3448         -1.1706e+06         2.81673e+07
   17.59             62852.8             65.6665        -1.16922e+06         2.79712e+07
   17.61             62985.2             64.9843        -1.16644e+06         2.77578e+07
   17.63             63019.2             64.3045        -1.16228e+06          2.7528e+07
   17.65             62955.6             63.6336        -1.15677e+06         2.72831e+07
   17.67             62796.2             62.9777        -1.14995e+06         2.70244e+07
   17.69             62543.5             62.3427        -1.14187e+06         2.67533e+07
   17.71               62201             61.7344         -1.1326e+06         2.64715e+07
   17.73             61772.6             61.1582        -1.12221e+06         2.61807e+07
   17.75             61263.4             60.6192        -1.11079e+06         2.58827e+07
   17.77             60679.1             60.1223        -1.09842e+06         2.55794e+07
   17.79               60026             59.6718        -1.08522e+06         2.52728e+07
   17.81             59311.2             59.2719        -1.07129e+06         2.49649e+07
   17.83             58542.5             58.9264        -1.05676e+06         2.46578e+07
   17.85             57727.9             58.6388        -1.04173e+06         2.43537e+07
   17.87             56876.2              58.412        -1.02636e+06         2.40547e+07
   17.89             55996.6             58.2491        -1.01077e+06         2.37629e+07
   17.91             55098.6             58.1526             -995094         2.34805e+07
   17.93               54192             58.1247             -979482         2.32097e+07
   17.95             53286.7             58.1676             -964073         2.29525e+07
   17.97               52393             58.2832             -949012         2.27111e+07
   17.99             51520.9             58.4733             -934438         2.24873e+07
   18.01             50680.7             58.7397             -920495         2.22832e+07
   18.03             49882.3             59.0838             -907318         2.21005e+07
   18.05             49135.7             59.5073             -895041         2.19411e+07
   18.07             48450.4             60.0116             -883795         2.18065e+07
   18.09             47835.7              60.598             -873701         2.16984e+07
   18.11             47300.3              61.268             -864876         2.16181e+07
   18.13             46852.8             62.0227             -857428         2.15669e+07
   18.15             46500.7              62.863             -851458         2.15459e+07
   18.17             46251.3             63.7897             -847056         2.15561e+07
   18.19               46111             64.8032             -844303         2.15983e+07
   18.21             46085.6             65.9035             -843267         2.16732e+07
   18.23               46180               67.09             -844008         2.17811e+07
   18.25             46398.3             68.3617             -846570         2.19224e+07
   18.27             46743.5             69.7169             -850988         2.20971e+07
   18.29               47218             71.1532             -857281         2.23051e+07
   18.31             47823.1             72.6676             -865456         2.25461e+07
   18.33             48559.1             74.2565             -875506         2.28196e+07
   18.35             49425.1             75.9156             -887410         2.31248e+07
   18.37             50419.5             77.6401             -901134         2.34607e+07
   18.39             51539.5             79.4246             -916627         2.38262e+07
   18.41             52781.3             81.2635             -933828         2.42199e+07
   18.43             54139.9             83.1505             -952658         2.46402e+07
   18.45             55609.7             85.0794             -973028         2.50853e+07
   18.47             57183.6             87.0435             -994833         2.55531e+07
   18.49               58854             89.0359        -1.01796e+06         2.60415e+07
   18.51             60612.1             91.0497        -1.04227e+06         2.65481e+07
   18.53             62448.2             93.0779        -1.06764e+06         2.70703e+07
   18.55             64352.2              95.113         -1.0939e+06         2.76053e+07
   18.57             66312.7             97.1481        -1.12091e+06         2.81503e+07
   18.59               68318             99.1756        -1.14849e+06         2.87022e+07
   18.61             70355.7             101.188        -1.17646e+06          2.9258e+07
   18.63             72412.9             103.179        -1.20464e+06         2.98144e+07
   18.65             74476.3             105.139        -1.23285e+06         3.03681e+07
   18.67             76532.2             107.063        -1.26089e+06         3.09158e+07
   18.69               78567             108.942        -1.28857e+06          3.1454e+07
   18.71             80566.7             110.769         -1.3157e+06         3.19796e+07
   18.73             82517.4             112.538        -1.34209e+06         3.24891e+07
   18.75             84405.3             114.241        -1.36754e+06         3.29792e+07
   18.77             86217.1             115.871        -1.39187e+06         3.34468e+07
   18.79             87939.6             117.422        -1.41491e+06         3.38889e+07
   18.81             89560.2             118.889        -1.43647e+06         3.43025e+07
   18.83             91066.9             120.264        -1.45641e+06         3.46848e+07
   18.85             92448.3             121.543        -1.47455e+06         3.50333e+07
   18.87               93694             122.721        -1.49078e+06         3.53456e+07
   18.89             94794.2             123.793        -1.50495e+06         3.56196e+07
   18.91             95740.5             124.755        -1.51695e+06         3.58536e+07
   18.93             96525.2             125.605        -1.52669e+06         3.60458e+07
   18.95             97141.9             126.339        -1.53408e+06         3.61949e+07
   18.97             97585.3             126.955        -1.53907e+06         3.63001e+07
   18.99             97851.3             127.452        -1.54159e+06         3.63605e+07
   19.01             97937.2             127.829        -1.54161e+06         3.63759e+07
   19.03             97841.3             128.086        -1.53914e+06          3.6346e+07
   19.05             97563.5             128.223        -1.53416e+06         3.62711e+07
   19.07             97104.7             128.242         -1.5267e+06         3.61517e+07
   19.09             96467.2             128.143         -1.5168e+06         3.59886e+07
   19.11             95654.3             127.929        -1.50451e+06         3.57828e+07
   19.13             94670.6             127.603         -1.4899e+06         3.55358e+07
   19.15             93521.8             127.167        -1.47306e+06         3.52489e+07
   19.17             92214.6             126.624        -1.45408e+06         3.49241e+07
   19.19             90756.5              125.98        -1.43308e+06         3.45633e+07
   19.21             89156.1             125.236        -1.41018e+06         3.41686e+07
   19.23             87422.6             124.399        -1.38549e+06         3.37422e+07
   19.25             85565.8             123.471        -1.35918e+06         3.32866e+07
   19.27             83596.3             122.457        -1.33137e+06         3.28043e+07
   19.29             81524.8             121.362        -1.30222e+06         3.22978e+07
   19.31             79362.5              120.19        -1.27189e+06         3.17695e+07
   19.33               77121             118.945        -1.24052e+06         3.12222e+07
   19.35             74811.7              117.63        -1.20828e+06         3.06582e+07
   19.37             72446.2              116.25        -1.17532e+06         3.00802e+07
   19.39             70035.9             114.807        -1.14179e+06         2.94905e+07
   19.41             67592.2             113.306        -1.10784e+06         2.88914e+07
   19.43             65126.1             111.748        -1.07362e+06         2.82851e+07
   19.45             62648.2             110.137        -1.03926e+06         2.76738e+07
   19.47             60168.6             108.474         -1.0049e+06         2.70593e+07
   19.49             57697.2             106.762             -970658         2.64435e+07
   19.51               55243             105.001             -936648         2.58279e+07
   19.53             52814.7             103.193             -902978         2.52141e+07
   19.55               50420             101.339             -869745         2.46032e+07
   19.57             48066.2               99.44             -837035         2.39965e+07
   19.59             45759.9             97.4957             -804926         2.33948e+07
   19.61             43506.9             95.5071             -773486          2.2799e+07
   19.63             41312.1             93.4745             -742772         2.22097e+07
   19.65             39180.2             91.3983             -712832         2.16274e+07
   19.67             37114.6             89.2789             -683705         2.10524e+07
   19.69             35118.5             87.1171             -655421          2.0485e+07
   19.71             33194.2             84.9137             -628003         1.99253e+07
   19.73             31343.5             82.6698             -601463         1.93733e+07
   19.75             29567.4             80.3872             -575810         1.88289e+07
   19.77             27866.6             78.0675             -551042          1.8292e+07
   19.79             26241.2             75.7133             -527155         1.77624e+07
   19.81             24690.8             73.3275             -504138           1.724e+07
   19.83             23214.7             70.9134             -481975         1.67244e+07
   19.85             21811.5             68.4749             -460646         1.62154e+07
   19.87               20480             66.0166             -440131         1.57127e+07
   19.89             19218.1             63.5433             -420404         1.52161e+07
   19.91               18024             61.0604             -401437         1.47254e+07
   19.93             16895.4             58.5739             -383205         1.42403e+07
   19.95               15830             56.0899             -365676         1.37607e+07
   19.97             14825.1             53.6148             -348824         1.32866e+07
   19.99             13878.4             51.1553             -332617         1.28177e+07
   20.01               12987             48.7181             -317029         1.23542e+07
