## w(eV)      kappa(W(mK)^-1)     error(W(mK)^-1)
    0.01             1238.53            0.164347
    0.03             1238.55            0.164042
    0.05              1238.5            0.163829
    0.07             1238.45            0.163513
    0.09             1238.35            0.163087
    0.11             1238.23            0.162552
    0.13             1238.08             0.16191
    0.15             1237.92             0.16116
    0.17             1237.74              0.1603
    0.19             1237.53            0.159332
    0.21             1237.31            0.158252
    0.23             1237.08            0.157062
    0.25             1236.83             0.15576
    0.27             1236.57            0.154345
    0.29              1236.3            0.152816
    0.31             1236.02            0.151171
    0.33             1235.74            0.149462
    0.35             1235.45            0.147533
    0.37             1235.17            0.145536
    0.39             1234.89            0.143418
    0.41             1234.61            0.141178
    0.43             1234.34            0.138815
    0.45             1234.09            0.136326
    0.47             1233.85            0.133711
    0.49             1233.62             0.13097
    0.51             1233.42            0.128096
    0.53             1233.24             0.12509
    0.55             1233.09             0.12195
    0.57             1232.97            0.118674
    0.59             1232.89             0.11526
    0.61             1232.84            0.111705
    0.63             1232.83            0.108009
    0.65             1232.86            0.104169
    0.67             1232.94            0.100183
    0.69             1233.06           0.0960494
    0.71             1233.24           0.0917657
    0.73             1233.48           0.0873301
    0.75             1233.77            0.082741
    0.77             1234.12           0.0779965
    0.79             1234.54           0.0730948
    0.81             1235.02           0.0680343
    0.83             1235.57           0.0628135
    0.85             1236.18           0.0574309
    0.87             1236.87           0.0518853
    0.89             1237.63           0.0462307
    0.91             1238.46           0.0403022
    0.93             1239.37           0.0342619
    0.95             1240.35           0.0280555
    0.97             1241.41           0.0216828
    0.99             1242.55           0.0151438
    1.01             1243.77          0.00843877
    1.03             1245.06          0.00156859
    1.05             1246.43          0.00546583
    1.07             1247.87            0.012663
    1.09             1249.39           0.0200212
    1.11             1250.99           0.0275381
    1.13             1252.65           0.0352111
    1.15             1254.39           0.0430369
    1.17              1256.2            0.051012
    1.19             1258.07           0.0591321
    1.21             1260.01           0.0673926
    1.23             1262.01           0.0757881
    1.25             1264.06           0.0843129
    1.27             1266.17           0.0929605
    1.29             1268.33            0.101724
    1.31             1270.54            0.110595
    1.33             1272.79            0.119567
    1.35             1275.07             0.12863
    1.37             1277.39            0.137774
    1.39             1279.74             0.14699
    1.41             1282.12            0.156262
    1.43             1284.51            0.165588
    1.45             1286.92            0.174952
    1.47             1289.33            0.184341
    1.49             1291.75            0.193743
    1.51             1294.16            0.203144
    1.53             1296.57             0.21253
    1.55             1298.96            0.221887
    1.57             1301.34            0.231201
    1.59             1303.68            0.240456
    1.61                1306             0.24959
    1.63             1308.28            0.258728
    1.65             1310.53            0.267717
    1.67             1312.72            0.276585
    1.69             1314.86            0.285316
    1.71             1316.95            0.293895
    1.73             1318.97            0.302307
    1.75             1320.93            0.310535
    1.77             1322.81            0.318565
    1.79             1324.62            0.326382
    1.81             1326.35             0.33397
    1.83                1328            0.341316
    1.85             1329.55            0.348406
    1.87             1331.02            0.355226
    1.89             1332.39            0.361764
    1.91             1333.66            0.368008
    1.93             1334.83            0.373945
    1.95             1335.89            0.379565
    1.97             1336.85            0.384859
    1.99              1337.7            0.389817
    2.01             1338.43            0.394431
    2.03             1339.05            0.398694
    2.05             1339.55            0.402597
    2.07             1339.94            0.406137
    2.09              1340.2            0.409308
    2.11             1340.34            0.411916
    2.13             1340.36            0.414526
    2.15             1340.25             0.41657
    2.17             1340.02            0.418233
    2.19             1339.65            0.419517
    2.21             1339.16            0.420421
    2.23             1338.53            0.420946
    2.25             1337.77            0.421095
    2.27             1336.87             0.42087
    2.29             1335.84            0.420275
    2.31             1334.67            0.419314
    2.33             1333.36            0.417993
    2.35              1331.9            0.416316
    2.37              1330.3             0.41429
    2.39             1328.55            0.411922
    2.41             1326.65             0.40922
    2.43              1324.6            0.406192
    2.45             1322.39            0.402845
    2.47             1320.02             0.39919
    2.49              1317.5            0.395236
    2.51              1314.8            0.390993
    2.53             1311.94            0.386471
    2.55              1308.9            0.381682
    2.57             1305.69            0.376636
    2.59              1302.3            0.371346
    2.61             1298.73            0.365824
    2.63             1294.97            0.360081
    2.65             1291.03            0.354131
    2.67             1286.89            0.347986
    2.69             1282.55            0.341659
    2.71             1278.02            0.335164
    2.73             1273.29            0.328515
    2.75             1268.35            0.321724
    2.77             1263.21            0.314805
    2.79             1257.87            0.307771
    2.81             1252.32            0.300636
    2.83             1246.56            0.293412
    2.85             1240.59            0.286114
    2.87             1234.42            0.278751
    2.89             1228.05            0.271337
    2.91             1221.47            0.263883
    2.93              1214.7              0.2564
    2.95             1207.73            0.248897
    2.97             1200.57            0.241385
    2.99             1193.23            0.233871
    3.01              1185.7            0.226364
    3.03                1178             0.21887
    3.05             1170.14            0.211395
    3.07             1162.12            0.203945
    3.09             1153.94            0.196524
    3.11             1145.63            0.189123
    3.13             1137.18            0.181778
    3.15             1128.62            0.174459
    3.17             1119.94            0.167176
    3.19             1111.16             0.15993
    3.21             1102.28            0.152721
    3.23             1093.33            0.145548
    3.25             1084.31            0.138409
    3.27             1075.23            0.131303
    3.29              1066.1            0.124229
    3.31             1056.93            0.117184
    3.33             1047.74            0.110167
    3.35             1038.53            0.103175
    3.37             1029.32           0.0962082
    3.39             1020.11           0.0892642
    3.41             1010.91           0.0823425
    3.43             1001.73           0.0754425
    3.45             992.583           0.0685642
    3.47             983.472           0.0617082
    3.49             974.404           0.0548755
    3.51             965.387           0.0480677
    3.53             956.426           0.0412871
    3.55             947.527           0.0345365
    3.57             938.695           0.0278192
    3.59             929.933           0.0211391
    3.61             921.246           0.0145007
    3.63             912.635          0.00790884
    3.65             904.105          0.00136889
    3.67             895.657           0.0051134
    3.69             887.291           0.0115319
    3.71             879.009           0.0178803
    3.73             870.812           0.0241519
    3.75             862.699           0.0303399
    3.77             854.671           0.0364374
    3.79             846.725           0.0424384
    3.81             838.862           0.0483339
    3.83             831.079            0.054118
    3.85             823.376           0.0597837
    3.87             815.749           0.0653242
    3.89             808.197            0.070733
    3.91             800.718            0.076033
    3.93              793.31           0.0811106
    3.95             785.969            0.086106
    3.97             778.692           0.0909266
    3.99             771.478           0.0955864
    4.01             764.323            0.100081
    4.03             757.225            0.104405
    4.05             750.182            0.108554
    4.07             743.189            0.112526
    4.09             736.245            0.116316
    4.11             729.348            0.119923
    4.13             722.494            0.123342
    4.15             715.682            0.126573
    4.17             708.909            0.129613
    4.19             702.174            0.132461
    4.21             695.475            0.135117
    4.23             688.809            0.137579
    4.25             682.177            0.139848
    4.27             675.575            0.141923
    4.29             669.004            0.143805
    4.31             662.462            0.145495
    4.33             655.949            0.146994
    4.35             649.465            0.148303
    4.37             643.008            0.149424
    4.39              636.58             0.15036
    4.41             630.181            0.151111
    4.43             623.811            0.151681
    4.45              617.47            0.152072
    4.47              611.16            0.152287
    4.49             604.882            0.152329
    4.51             598.637            0.152202
    4.53             592.426            0.151908
    4.55             586.253            0.151451
    4.57             580.118            0.150834
    4.59             574.023            0.150062
    4.61             567.972            0.149138
    4.63             561.967            0.148066
    4.65              556.01            0.146849
    4.67             550.105            0.145492
    4.69             544.254            0.143999
    4.71             538.462            0.142374
    4.73             532.731             0.14062
    4.75             527.066            0.138742
    4.77              521.47            0.136743
    4.79             515.947            0.134627
    4.81             510.502            0.132398
    4.83             505.138            0.130061
    4.85             499.861            0.127617
    4.87             494.674            0.125072
    4.89             489.583            0.122428
    4.91             484.592            0.119689
    4.93             479.707            0.116858
    4.95             474.931            0.113938
    4.97             470.271            0.110931
    4.99             465.732            0.107843
    5.01             461.318            0.104674
    5.03             457.035            0.101427
    5.05             452.887           0.0981069
    5.07             448.881           0.0947144
    5.09             445.021           0.0912527
    5.11             441.313           0.0877244
    5.13              437.76           0.0841321
    5.15             434.368           0.0804786
    5.17             431.142           0.0768206
    5.19             428.085           0.0729987
    5.21             425.202           0.0691779
    5.23             422.497           0.0653071
    5.25             419.974           0.0613895
    5.27             417.635           0.0574283
    5.29             415.483           0.0534269
    5.31             413.521           0.0493887
    5.33             411.751           0.0453175
    5.35             410.173            0.041217
    5.37             408.791           0.0370912
    5.39             407.603           0.0329442
    5.41             406.609             0.02878
    5.43              405.81            0.024603
    5.45             405.204           0.0204176
    5.47              404.79            0.016228
    5.49             404.565           0.0120387
    5.51             404.527          0.00785401
    5.53             404.672           0.0036784
    5.55             404.997         0.000483836
    5.57             405.497          0.00462754
    5.59             406.168          0.00875116
    5.61             407.004           0.0128479
    5.63                 408           0.0169147
    5.65             409.149           0.0209476
    5.67             410.446           0.0249427
    5.69             411.884           0.0288964
    5.71             413.455           0.0328049
    5.73             415.152           0.0366648
    5.75             416.967           0.0404726
    5.77             418.894           0.0442248
    5.79             420.923            0.047918
    5.81             423.048           0.0515489
    5.83             425.259           0.0551141
    5.85             427.549           0.0586102
    5.87             429.909           0.0620339
    5.89             432.331           0.0653817
    5.91             434.808           0.0686501
    5.93              437.33           0.0718357
    5.95              439.89           0.0749348
    5.97              442.48           0.0779438
    5.99             445.092           0.0808589
    6.01             447.718           0.0836763
    6.03             450.352           0.0863921
    6.05             452.985           0.0890024
    6.07              455.61           0.0915032
    6.09             458.222           0.0938904
    6.11             460.812           0.0961597
    6.13             463.376           0.0983074
    6.15             465.906            0.100329
    6.17             468.396            0.102221
    6.19             470.842             0.10398
    6.21             473.239            0.105598
    6.23              475.58            0.107075
    6.25             477.862            0.108405
    6.27             480.079            0.109586
    6.29             482.229            0.110613
    6.31             484.308            0.111483
    6.33             486.311            0.112192
    6.35             488.237            0.112738
    6.37             490.082            0.113117
    6.39             491.844            0.113325
    6.41             493.521            0.113362
    6.43             495.111            0.113224
    6.45             496.613             0.11291
    6.47             498.026            0.112417
    6.49             499.348            0.111745
    6.51             500.581            0.110892
    6.53             501.722            0.109857
    6.55             502.774             0.10864
    6.57             503.735            0.107241
    6.59             504.607             0.10566
    6.61             505.391            0.103898
    6.63             506.087            0.101955
    6.65             506.698           0.0998336
    6.67             507.226           0.0975347
    6.69             507.671           0.0950607
    6.71             508.037            0.092414
    6.73             508.325           0.0895976
    6.75             508.538           0.0866145
    6.77             508.679           0.0834685
    6.79             508.751           0.0801636
    6.81             508.756            0.076704
    6.83             508.697           0.0730947
    6.85             508.578           0.0693405
    6.87             508.402           0.0654471
    6.89             508.172             0.06142
    6.91             507.891           0.0572648
    6.93             507.563           0.0529892
    6.95             507.191           0.0485993
    6.97             506.777           0.0441021
    6.99             506.326           0.0395047
    7.01             505.841           0.0348148
    7.03             505.324           0.0300401
    7.05             504.779           0.0251886
    7.07             504.207           0.0202686
    7.09             503.613           0.0152887
    7.11             502.999           0.0102572
    7.13             502.366          0.00518289
    7.15             501.718         7.47502e-05
    7.17             501.056          0.00505824
    7.19             500.383            0.010207
    7.21             499.699           0.0153623
    7.23             499.007           0.0205151
    7.25             498.307            0.025656
    7.27             497.601           0.0307758
    7.29             496.889           0.0358654
    7.31             496.171           0.0409155
    7.33             495.449           0.0459171
    7.35             494.722           0.0508612
    7.37              493.99           0.0557389
    7.39             493.252           0.0605416
    7.41             492.508           0.0652606
    7.43             491.756           0.0698876
    7.45             490.996           0.0744146
    7.47             490.226           0.0788336
    7.49             489.445           0.0831371
    7.51             488.651           0.0873178
    7.53             487.841           0.0913686
    7.55             487.013           0.0952825
    7.57             486.166           0.0990542
    7.59             485.297            0.102677
    7.61             484.402            0.106146
    7.63              483.48            0.109456
    7.65             482.527            0.112602
    7.67              481.54             0.11558
    7.69             480.517            0.118386
    7.71             479.453            0.121018
    7.73             478.347            0.123472
    7.75             477.194            0.125746
    7.77             475.992            0.127839
    7.79             474.737             0.12975
    7.81             473.426            0.131477
    7.83             472.057            0.133021
    7.85             470.625            0.134382
    7.87             469.129            0.135561
    7.89             467.565             0.13656
    7.91             465.931            0.137381
    7.93             464.223            0.138026
    7.95              462.44            0.138497
    7.97              460.58              0.1388
    7.99             458.639            0.138937
    8.01             456.616            0.138913
    8.03              454.51            0.138733
    8.05             452.318            0.138402
    8.07              450.04            0.137925
    8.09             447.674             0.13731
    8.11             445.219            0.136562
    8.13             442.675            0.135687
    8.15             440.041            0.134694
    8.17             437.317            0.133588
    8.19             434.502            0.132377
    8.21             431.598             0.13107
    8.23             428.604            0.129661
    8.25             425.521            0.128195
    8.27              422.35            0.126643
    8.29             419.091            0.125026
    8.31             415.747            0.123352
    8.33             412.319            0.121628
    8.35             408.809            0.119862
    8.37             405.217            0.118063
    8.39             401.547            0.116238
    8.41             397.801            0.114395
    8.43              393.98             0.11254
    8.45             390.088            0.110682
    8.47             386.127            0.108828
    8.49               382.1            0.106983
    8.51              378.01            0.105155
    8.53             373.859            0.103349
    8.55             369.652            0.101571
    8.57             365.391           0.0998268
    8.59             361.079           0.0981214
    8.61              356.72           0.0964594
    8.63             352.317           0.0948449
    8.65             347.873           0.0932819
    8.67             343.393           0.0917739
    8.69             338.879           0.0903239
    8.71             334.335           0.0889345
    8.73             329.764           0.0876079
    8.75              325.17           0.0863454
    8.77             320.557           0.0851493
    8.79             315.927           0.0840194
    8.81             311.285           0.0829581
    8.83             306.632           0.0819641
    8.85             301.974           0.0810369
    8.87             297.312           0.0801762
    8.89             292.651           0.0793812
    8.91             287.993           0.0786505
    8.93             283.341           0.0779824
    8.95             278.698           0.0773751
    8.97             274.067           0.0768261
    8.99             269.451           0.0763331
    9.01             264.853           0.0758933
    9.03             260.275           0.0755037
    9.05             255.719            0.075161
    9.07             251.189           0.0748621
    9.09             246.686           0.0746033
    9.11             242.212           0.0743811
    9.13              237.77           0.0741917
    9.15             233.362           0.0740312
    9.17              228.99           0.0738959
    9.19             224.655           0.0737817
    9.21             220.359           0.0736849
    9.23             216.104           0.0736014
    9.25             211.892           0.0735274
    9.27             207.723           0.0734591
    9.29               203.6           0.0733928
    9.31             199.523           0.0733246
    9.33             195.494           0.0732512
    9.35             191.514            0.073169
    9.37             187.583           0.0730748
    9.39             183.704           0.0729654
    9.41             179.875           0.0728378
    9.43             176.099           0.0726892
    9.45             172.376           0.0725169
    9.47             168.707           0.0723185
    9.49             165.092           0.0720911
    9.51             161.531           0.0718346
    9.53             158.026           0.0715451
    9.55             154.576           0.0712217
    9.57             151.181            0.070863
    9.59             147.843           0.0704676
    9.61             144.561           0.0700347
    9.63             141.335           0.0695632
    9.65             138.165           0.0690528
    9.67             135.051           0.0685027
    9.69             131.994           0.0679129
    9.71             128.993           0.0672833
    9.73             126.048            0.066614
    9.75             123.158           0.0659052
    9.77             120.325           0.0651574
    9.79             117.547           0.0643712
    9.81             114.824           0.0635472
    9.83             112.156           0.0626864
    9.85             109.543           0.0617897
    9.87             106.983           0.0608581
    9.89             104.478           0.0598928
    9.91             102.026           0.0588951
    9.93             99.6264           0.0578664
    9.95             97.2794           0.0568079
    9.97             94.9843           0.0557212
    9.99             92.7405           0.0546078
   10.01             90.5475           0.0534691
   10.03             88.4047           0.0523068
   10.05             86.3115           0.0511224
   10.07             84.2673           0.0499176
   10.09             82.2715           0.0486938
   10.11             80.3233           0.0474526
   10.13             78.4222           0.0461957
   10.15             76.5675           0.0449243
   10.17             74.7583           0.0436405
   10.19             72.9942           0.0423454
   10.21             71.2742           0.0410406
   10.23             69.5977           0.0397275
   10.25             67.9639           0.0384074
   10.27              66.372           0.0370817
   10.29             64.8214           0.0357518
   10.31             63.3111           0.0344188
   10.33             61.8405           0.0330839
   10.35             60.4086           0.0317485
   10.37             59.0148           0.0304135
   10.39             57.6582           0.0290801
   10.41             56.3379           0.0277493
   10.43             55.0533           0.0264221
   10.45             53.8033           0.0250996
   10.47             52.5873           0.0237827
   10.49             51.4044           0.0224724
   10.51             50.2538           0.0211696
   10.53             49.1346           0.0198752
   10.55              48.046           0.0185902
   10.57             46.9874           0.0173154
   10.59             45.9577           0.0160519
   10.61             44.9563           0.0148004
   10.63             43.9824           0.0135621
   10.65             43.0351           0.0123379
   10.67             42.1138           0.0111289
   10.69             41.2177          0.00993614
   10.71             40.3461          0.00876074
   10.73             39.4983          0.00760391
   10.75             38.6736          0.00646688
   10.77             37.8714          0.00535095
   10.79              37.091          0.00425751
   10.81             36.3319          0.00318794
   10.83             35.5934          0.00214383
   10.85             34.8751          0.00112671
   10.87             34.1764         0.000138209
   10.89             33.4969         0.000819992
   10.91             32.8362          0.00174616
   10.93             32.1938          0.00263853
   10.95             31.5695          0.00349532
   10.97             30.9629          0.00431473
   10.99             30.3737          0.00509499
   11.01             29.8017          0.00583438
   11.03             29.2467          0.00653122
   11.05             28.7085          0.00718412
   11.07             28.1871          0.00779127
   11.09             27.6823          0.00835158
   11.11              27.194          0.00886397
   11.13             26.7222          0.00932758
   11.15             26.2669          0.00974664
   11.17              25.828           0.0101064
   11.19             25.4054           0.0104214
   11.21             24.9993           0.0106872
   11.23             24.6095           0.0109046
   11.25             24.2361           0.0110749
   11.27             23.8789           0.0111995
   11.29             23.5378           0.0112805
   11.31             23.2128           0.0113204
   11.33             22.9037           0.0113218
   11.35             22.6102            0.011288
   11.37             22.3322           0.0112224
   11.39             22.0692           0.0111288
   11.41             21.8209            0.011011
   11.43              21.587           0.0108731
   11.45             21.3657           0.0107202
   11.47              21.159           0.0105547
   11.49             20.9648           0.0103817
   11.51             20.7827           0.0102051
   11.53             20.6119           0.0100289
   11.55             20.4522          0.00985603
   11.57             20.3019          0.00969191
   11.59             20.1608          0.00953625
   11.61             20.0279          0.00939408
   11.63             19.9027          0.00926689
   11.65             19.7841          0.00915651
   11.67             19.6716          0.00906433
   11.69             19.5643           0.0089914
   11.71             19.4615          0.00893834
   11.73             19.3625          0.00890547
   11.75             19.2667          0.00889275
   11.77             19.1735          0.00889809
   11.79             19.0823          0.00892635
   11.81             18.9927          0.00897128
   11.83             18.9041          0.00903379
   11.85             18.8163          0.00911279
   11.87             18.7288          0.00920719
   11.89             18.6414           0.0093156
   11.91             18.5539          0.00943681
   11.93             18.4661          0.00956955
   11.95             18.3778          0.00971256
   11.97             18.2891          0.00986461
   11.99             18.1999           0.0100245
   12.01             18.1102           0.0101913
   12.03             18.0201           0.0103637
   12.05             17.9297           0.0105411
   12.07             17.8391           0.0107224
   12.09              17.748            0.010908
   12.11             17.6575           0.0110951
   12.13             17.5674           0.0112842
   12.15             17.4779           0.0114713
   12.17             17.3892           0.0116668
   12.19             17.3016           0.0118596
   12.21             17.2154           0.0120529
   12.23             17.1308           0.0122467
   12.25             17.0481           0.0124409
   12.27             16.9676           0.0126353
   12.29             16.8897           0.0128298
   12.31             16.8145           0.0130247
   12.33             16.7424           0.0132197
   12.35             16.6737           0.0134151
   12.37             16.6087           0.0136109
   12.39             16.5477           0.0138072
   12.41             16.4908            0.014004
   12.43             16.4385           0.0142015
   12.45             16.3909           0.0143998
   12.47             16.3484           0.0145988
   12.49             16.3111           0.0147987
   12.51             16.2794           0.0149995
   12.53             16.2534           0.0152013
   12.55             16.2333            0.015404
   12.57             16.2195           0.0156075
   12.59              16.212           0.0158119
   12.61             16.2111           0.0160171
   12.63             16.2169           0.0162228
   12.65             16.2296           0.0164291
   12.67             16.2495           0.0166356
   12.69             16.2765           0.0168422
   12.71             16.3109           0.0170484
   12.73             16.3527           0.0172544
   12.75             16.4021           0.0174595
   12.77             16.4592           0.0176635
   12.79             16.5241            0.017866
   12.81             16.5968           0.0180666
   12.83             16.6774           0.0182648
   12.85             16.7659           0.0184603
   12.87             16.8622           0.0186532
   12.89             16.9667           0.0188415
   12.91             17.0791           0.0190256
   12.93             17.1994            0.019205
   12.95             17.3277            0.019379
   12.97             17.4638           0.0195472
   12.99             17.6078           0.0197103
   13.01             17.7595           0.0198639
   13.03             17.9188           0.0200114
   13.05             18.0857            0.020151
   13.07             18.2599           0.0202821
   13.09             18.4415           0.0204043
   13.11             18.6301           0.0205171
   13.13             18.8257           0.0206201
   13.15              19.028           0.0207128
   13.17             19.2368            0.020795
   13.19             19.4519           0.0208662
   13.21             19.6731           0.0209262
   13.23                19.9           0.0209747
   13.25             20.1325           0.0210115
   13.27             20.3702           0.0210365
   13.29             20.6128           0.0210496
   13.31               20.86           0.0210527
   13.33             21.1114           0.0210398
   13.35             21.3668            0.021017
   13.37             21.6257           0.0209824
   13.39             21.8878           0.0209363
   13.41             22.1527           0.0208787
   13.43             22.4199             0.02081
   13.45             22.6892           0.0207306
   13.47             22.9601           0.0206408
   13.49             23.2321           0.0205411
   13.51             23.5049           0.0204318
   13.53              23.778           0.0203137
   13.55              24.051           0.0201872
   13.57             24.3234           0.0200528
   13.59             24.5949           0.0199113
   13.61             24.8651           0.0197633
   13.63             25.1334           0.0196093
   13.65             25.3995           0.0194501
   13.67             25.6629           0.0192864
   13.69             25.9234           0.0191187
   13.71             26.1803           0.0189478
   13.73             26.4335           0.0187743
   13.75             26.6825           0.0185988
   13.77              26.927            0.018422
   13.79             27.1666           0.0182443
   13.81              27.401           0.0180662
   13.83               27.63           0.0178884
   13.85             27.8532           0.0177111
   13.87             28.0703           0.0175348
   13.89             28.2812           0.0173599
   13.91             28.4857           0.0171866
   13.93             28.6834            0.017015
   13.95             28.8744           0.0168454
   13.97             29.0584           0.0166777
   13.99             29.2354           0.0164989
   14.01             29.4052           0.0163483
   14.03             29.5679           0.0161864
   14.05             29.7234           0.0160262
   14.07             29.8717           0.0158673
   14.09             30.0129           0.0157095
   14.11             30.1471           0.0155525
   14.13             30.2743           0.0153958
   14.15             30.3947            0.015239
   14.17             30.5084           0.0150816
   14.19             30.6157           0.0149231
   14.21             30.7167           0.0147629
   14.23             30.8118           0.0146005
   14.25             30.9012           0.0144353
   14.27             30.9852           0.0142666
   14.29             31.0641           0.0140941
   14.31             31.1384           0.0139169
   14.33             31.2083           0.0137346
   14.35             31.2743           0.0135467
   14.37             31.3369           0.0133525
   14.39             31.3964           0.0131516
   14.41             31.4533           0.0129435
   14.43             31.5081           0.0127279
   14.45             31.5613           0.0125043
   14.47             31.6134           0.0122723
   14.49             31.6649           0.0120318
   14.51             31.7163           0.0117826
   14.53             31.7682           0.0115243
   14.55             31.8211            0.011257
   14.57             31.8755           0.0109805
   14.59             31.9321            0.010695
   14.61             31.9912           0.0104003
   14.63             32.0535           0.0100966
   14.65             32.1194          0.00978418
   14.67             32.1896           0.0094631
   14.69             32.2646          0.00913366
   14.71             32.3448          0.00879616
   14.73             32.4307           0.0084509
   14.75             32.5229          0.00809826
   14.77             32.6218          0.00773862
   14.79             32.7278          0.00737239
   14.81             32.8415               0.007
   14.83             32.9632          0.00662188
   14.85             33.0932          0.00623849
   14.87             33.2321          0.00585028
   14.89             33.3802          0.00545769
   14.91             33.5377          0.00506116
   14.93              33.705          0.00466112
   14.95             33.8824          0.00425799
   14.97             34.0701          0.00385216
   14.99             34.2684          0.00344399
   15.01             34.4774          0.00303383
   15.03             34.6974            0.002622
   15.05             34.9285          0.00220877
   15.07             35.1709          0.00179404
   15.09             35.4245          0.00137868
   15.11             35.6895         0.000962692
   15.13             35.9659         0.000545813
   15.15             36.2537         0.000128522
   15.17              36.553         0.000289243
   15.19             36.8636         0.000707461
   15.21             37.1855          0.00112614
   15.23             37.5185          0.00154534
   15.25             37.8627          0.00196514
   15.27             38.2178          0.00238566
   15.29             38.5836          0.00280703
   15.31             38.9599          0.00322944
   15.33             39.3466          0.00365307
   15.35             39.7433          0.00407815
   15.37             40.1499           0.0045049
   15.39             40.5659          0.00493358
   15.41             40.9912          0.00536445
   15.43             41.4253          0.00579778
   15.45              41.868          0.00623384
   15.47             42.3188           0.0066729
   15.49             42.7773          0.00711523
   15.51             43.2433          0.00756108
   15.53             43.7162          0.00801072
   15.55             44.1957          0.00846168
   15.57             44.6812          0.00892232
   15.59             45.1724          0.00938461
   15.61             45.6688          0.00985148
   15.63             46.1699           0.0103231
   15.65             46.6753           0.0107995
   15.67             47.1844           0.0112809
   15.69             47.6967           0.0117672
   15.71             48.2119           0.0122585
   15.73             48.7293           0.0127547
   15.75             49.2485           0.0132558
   15.77             49.7689           0.0137616
   15.79             50.2902           0.0142719
   15.81             50.8116           0.0147866
   15.83             51.3329           0.0153053
   15.85             51.8534           0.0158278
   15.87             52.3726           0.0163538
   15.89             52.8901           0.0168828
   15.91             53.4054           0.0174144
   15.93              53.918           0.0179481
   15.95             54.4275           0.0184834
   15.97             54.9332           0.0190198
   15.99             55.4349           0.0195566
   16.01              55.932           0.0200933
   16.03             56.4241           0.0206291
   16.05             56.9109           0.0211634
   16.07             57.3917           0.0216954
   16.09             57.8664           0.0222244
   16.11             58.3344           0.0227497
   16.13             58.7953           0.0232705
   16.15              59.249            0.023786
   16.17             59.6949           0.0242955
   16.19             60.1327           0.0247981
   16.21             60.5622            0.025293
   16.23             60.9831           0.0257795
   16.25              61.395           0.0262568
   16.27             61.7978           0.0267242
   16.29             62.1911            0.027181
   16.31             62.5749           0.0276264
   16.33             62.9488           0.0280597
   16.35             63.3127           0.0284804
   16.37             63.6666           0.0288879
   16.39             64.0102           0.0292815
   16.41             64.3435           0.0296608
   16.43             64.6665           0.0300254
   16.45             64.9791           0.0303747
   16.47             65.2813           0.0307086
   16.49             65.5732           0.0310266
   16.51             65.8548           0.0313287
   16.53             66.1264           0.0316145
   16.55             66.3879            0.031884
   16.57             66.6397           0.0321372
   16.59             66.8819           0.0323742
   16.61             67.1149            0.032595
   16.63              67.339           0.0327998
   16.65             67.5545           0.0329888
   16.67             67.7619           0.0331625
   16.69             67.9616           0.0333211
   16.71             68.1542           0.0334651
   16.73             68.3403           0.0335951
   16.75             68.5205           0.0337116
   16.77             68.6955           0.0338153
   16.79              68.866           0.0339068
   16.81             69.0329            0.033987
   16.83             69.1971           0.0340566
   16.85             69.3594           0.0341166
   16.87             69.5208           0.0341678
   16.89             69.6825           0.0342112
   16.91             69.8455           0.0342478
   16.93              70.011           0.0342786
   16.95             70.1802           0.0343047
   16.97             70.3544           0.0343273
   16.99             70.5349           0.0343474
   17.01             70.7231           0.0343661
   17.03             70.9204           0.0343847
   17.05             71.1283           0.0344043
   17.07             71.3484           0.0344261
   17.09              71.582           0.0344513
   17.11             71.8309           0.0344809
   17.13             72.0966           0.0345163
   17.15             72.3806           0.0345584
   17.17             72.6846           0.0346085
   17.19             73.0102           0.0346675
   17.21             73.3589           0.0347365
   17.23             73.7324           0.0348165
   17.25             74.1322           0.0349084
   17.27             74.5597            0.035013
   17.29             75.0164            0.035131
   17.31             75.5038           0.0352632
   17.33             76.0231           0.0354101
   17.35             76.5755           0.0355721
   17.37             77.1623           0.0357495
   17.39             77.7844           0.0359426
   17.41             78.4428           0.0361512
   17.43             79.1383           0.0363754
   17.45             79.8716           0.0366147
   17.47             80.6432           0.0368686
   17.49             81.4534           0.0371364
   17.51             82.3025           0.0374172
   17.53             83.1905           0.0377099
   17.55             84.1174            0.038013
   17.57             85.0826            0.038325
   17.59             86.0858           0.0386441
   17.61             87.1263           0.0389682
   17.63             88.2031           0.0392949
   17.65             89.3152           0.0396219
   17.67             90.4612           0.0399462
   17.69             91.6396           0.0402649
   17.71             92.8488           0.0405749
   17.73             94.0869           0.0408729
   17.75             95.3517           0.0411551
   17.77              96.641           0.0414181
   17.79             97.9523           0.0416579
   17.81             99.2831           0.0418707
   17.83             100.631           0.0420524
   17.85             101.992           0.0421991
   17.87             103.363           0.0423067
   17.89             104.743           0.0423713
   17.91             106.126           0.0423887
   17.93              107.51           0.0423553
   17.95             108.892           0.0422673
   17.97             110.267           0.0421211
   17.99             111.632           0.0419134
   18.01             112.984           0.0416412
   18.03             114.319           0.0413015
   18.05             115.633           0.0408919
   18.07             116.922           0.0404103
   18.09             118.184           0.0398547
   18.11             119.414           0.0392237
   18.13             120.609           0.0385162
   18.15             121.766           0.0377317
   18.17             122.881           0.0368699
   18.19             123.952           0.0359311
   18.21             124.975           0.0349159
   18.23             125.947           0.0338255
   18.25             126.866           0.0326613
   18.27             127.729           0.0314253
   18.29             128.535           0.0301199
   18.31             129.279           0.0287478
   18.33             129.962           0.0273122
   18.35              130.58           0.0258164
   18.37             131.132           0.0242644
   18.39             131.618           0.0226601
   18.41             132.035           0.0210079
   18.43             132.382           0.0193124
   18.45              132.66           0.0175783
   18.47             132.867           0.0158107
   18.49             133.002           0.0140146
   18.51             133.067            0.012195
   18.53              133.06           0.0103573
   18.55             132.982          0.00850672
   18.57             132.834          0.00664845
   18.59             132.615          0.00478771
   18.61             132.328          0.00292966
   18.63             131.971          0.00107934
   18.65             131.548         0.000758322
   18.67             131.058          0.00257853
   18.69             130.503          0.00437668
   18.71             129.885          0.00614833
   18.73             129.205          0.00788924
   18.75             128.464          0.00959542
   18.77             127.665           0.0112631
   18.79              126.81           0.0128887
   18.81             125.899            0.014469
   18.83             124.936           0.0160009
   18.85             123.922           0.0174817
   18.87              122.86           0.0189089
   18.89              121.75           0.0202802
   18.91             120.597           0.0215938
   18.93             119.402           0.0228478
   18.95             118.166            0.024041
   18.97             116.893            0.025172
   18.99             115.584             0.02624
   19.01             114.242           0.0272443
   19.03             112.869           0.0281845
   19.05             111.467           0.0290602
   19.07             110.038           0.0298716
   19.09             108.584           0.0306187
   19.11             107.108            0.031302
   19.13             105.612            0.031922
   19.15             104.097           0.0324796
   19.17             102.566           0.0329755
   19.19              101.02            0.033411
   19.21             99.4617            0.033787
   19.23             97.8928           0.0341051
   19.25             96.3148           0.0343666
   19.27             94.7297            0.034573
   19.29             93.1391            0.034726
   19.31             91.5447           0.0348273
   19.33             89.9479           0.0348786
   19.35             88.3503           0.0348819
   19.37             86.7534           0.0348392
   19.39             85.1585            0.034752
   19.41             83.5671           0.0346227
   19.43             81.9802            0.034453
   19.45             80.3992           0.0342451
   19.47             78.8253            0.034001
   19.49             77.2594           0.0337227
   19.51             75.7027           0.0334121
   19.53              74.156           0.0330714
   19.55             72.6205           0.0327025
   19.57             71.0968           0.0323074
   19.59             69.5859           0.0318879
   19.61             68.0885           0.0314461
   19.63             66.6052           0.0309837
   19.65             65.1368           0.0305026
   19.67             63.6839           0.0300045
   19.69             62.2471           0.0294913
   19.71             60.8268           0.0289645
   19.73             59.4236           0.0284258
   19.75             58.0378           0.0278767
   19.77             56.6699           0.0273188
   19.79             55.3203           0.0267536
   19.81             53.9892           0.0261823
   19.83             52.6769           0.0256064
   19.85             51.3838            0.025027
   19.87             50.1099           0.0244455
   19.89             48.8555            0.023863
   19.91             47.6208           0.0232805
   19.93             46.4058           0.0226991
   19.95             45.2107           0.0221197
   19.97             44.0356           0.0215432
   19.99             42.8804           0.0209705
   20.01             41.7453           0.0204024
