## w(eV)      kappa(W(mK)^-1)     error(W(mK)^-1)
    0.01              1832.5           0.0541722
    0.03             1831.66           0.0542038
    0.05             1829.99           0.0541871
    0.07             1827.46           0.0542895
    0.09             1824.11           0.0544391
    0.11             1819.92           0.0546485
    0.13              1814.9           0.0549294
    0.15             1809.06           0.0552998
    0.17             1802.41           0.0557789
    0.19             1794.96           0.0563907
    0.21             1786.73           0.0572026
    0.23             1777.71           0.0581572
    0.25             1767.93           0.0593238
    0.27              1757.4           0.0607335
    0.29             1746.15           0.0624188
    0.31             1734.21           0.0644138
    0.33             1721.58           0.0667531
    0.35             1708.32           0.0694725
    0.37             1694.43           0.0726074
    0.39             1679.97           0.0761975
    0.41             1664.95           0.0802575
    0.43             1649.43           0.0848439
    0.45             1633.44           0.0899776
    0.47             1617.02           0.0956857
    0.49             1600.21            0.101991
    0.51             1583.06            0.108912
    0.53             1565.61            0.116465
    0.55              1547.9            0.124654
    0.57             1529.99            0.133483
    0.59              1511.9            0.142944
    0.61             1493.69            0.153022
    0.63             1475.39            0.163696
    0.65             1457.05            0.174934
    0.67             1438.68            0.186695
    0.69             1420.33            0.198931
    0.71             1402.03            0.211582
    0.73             1383.79            0.224581
    0.75             1365.63            0.237854
    0.77             1347.58            0.251318
    0.79             1329.63            0.264882
    0.81              1311.8            0.278452
    0.83             1294.07            0.291928
    0.85             1276.46            0.305181
    0.87             1258.95            0.318153
    0.89             1241.52            0.330717
    0.91             1224.16            0.342771
    0.93             1206.85            0.354213
    0.95             1189.57            0.364947
    0.97              1172.3            0.374882
    0.99             1155.01            0.383936
    1.01              1137.7            0.392033
    1.03             1120.34            0.399108
    1.05             1102.94            0.405104
    1.07             1085.48            0.409974
    1.09             1067.98            0.413691
    1.11             1050.47            0.416235
    1.13             1032.97            0.417602
    1.15             1015.54            0.417807
    1.17             998.252            0.416884
    1.19             981.185            0.414889
    1.21             964.449            0.411903
    1.23             948.168            0.408034
    1.25             932.481            0.403421
    1.27             917.548            0.398226
    1.29             903.535            0.392638
    1.31             890.622            0.386864
    1.33              878.99            0.381117
    1.35             868.821            0.375608
    1.37             860.287            0.370523
    1.39             853.553            0.366012
    1.41             848.763             0.36217
    1.43              846.04            0.359016
    1.45             845.483            0.356489
    1.47             847.163            0.354436
    1.49             851.121            0.352616
    1.51             857.368            0.350708
    1.53             865.887            0.348321
    1.55             876.637            0.345019
    1.57             889.546            0.340343
    1.59             904.525            0.333834
    1.61             921.468            0.325064
    1.63             940.248            0.313653
    1.65             960.731            0.299289
    1.67              982.77            0.281749
    1.69             1006.21              0.2609
    1.71              1030.9            0.236709
    1.73             1056.66            0.209242
    1.75             1083.34             0.17866
    1.77             1110.76            0.145209
    1.79             1138.76            0.109209
    1.81             1167.17           0.0710465
    1.83             1195.82           0.0311531
    1.85             1224.54           0.0100038
    1.87             1253.16           0.0519381
    1.89             1281.52           0.0941594
    1.91             1309.46            0.136187
    1.93             1336.82            0.177562
    1.95             1363.45            0.217867
    1.97             1389.19            0.256714
    1.99             1413.92            0.293784
    2.01              1437.5            0.328815
    2.03              1459.8            0.361613
    2.05             1480.71            0.392061
    2.07             1500.14              0.4201
    2.09             1517.99            0.445759
    2.11              1534.2            0.469134
    2.13             1548.69            0.490387
    2.15             1561.43            0.509743
    2.17             1572.39            0.527479
    2.19             1581.55            0.543917
    2.21             1588.92            0.559414
    2.23             1594.51            0.574344
    2.25             1598.36            0.589094
    2.27             1600.52            0.604041
    2.29             1601.04            0.619547
    2.31             1599.99            0.635941
    2.33             1597.46            0.653506
    2.35             1593.55            0.672469
    2.37             1588.35            0.692991
    2.39             1581.96            0.715157
    2.41             1574.49            0.738972
    2.43             1566.06            0.764356
    2.45             1556.76            0.791141
    2.47             1546.71            0.819078
    2.49             1536.01            0.847836
    2.51             1524.74            0.877014
    2.53                1513            0.906146
    2.55             1500.85            0.934718
    2.57             1488.38             0.96218
    2.59             1475.61            0.987966
    2.61              1462.6             1.01151
    2.63             1449.37             1.03225
    2.65             1435.93             1.04968
    2.67             1422.27             1.06335
    2.69             1408.38             1.07283
    2.71             1394.23             1.07787
    2.73             1379.77             1.07824
    2.75             1364.94             1.07387
    2.77             1349.68             1.06478
    2.79             1333.92             1.05113
    2.81             1317.57             1.03318
    2.83             1300.54             1.01131
    2.85             1282.75              0.9861
    2.87             1264.11            0.958049
    2.89             1244.53            0.927858
    2.91             1223.93            0.896249
    2.93             1202.25            0.863977
    2.95             1179.43            0.831803
    2.97             1155.44            0.800468
    2.99             1130.25            0.770667
    3.01             1103.88            0.743025
    3.03             1076.37            0.718075
    3.05             1047.81            0.696237
    3.07              1018.3            0.677806
    3.09             988.015            0.662941
    3.11              957.15            0.651656
    3.13             925.952            0.643821
    3.15             894.708            0.639164
    3.17             863.741            0.637274
    3.19             833.402            0.637608
    3.21             804.058            0.639505
    3.23             776.082            0.642203
    3.25             749.835            0.644863
    3.27             725.653            0.646591
    3.29             703.829            0.646497
    3.31             684.604            0.643722
    3.33             668.155            0.637496
    3.35             654.586            0.627184
    3.37             643.934            0.612334
    3.39             636.163            0.592699
    3.41             631.177            0.568258
    3.43             628.827             0.53921
    3.45             628.921            0.505954
    3.47             631.237            0.469055
    3.49             635.535            0.429199
    3.51             641.566            0.387148
    3.53             649.079            0.343689
    3.55             657.834            0.299595
    3.57             667.601            0.255585
    3.59             678.166            0.212305
    3.61             689.334            0.170302
    3.63             700.927             0.13002
    3.65             712.788           0.0918004
    3.67             724.777           0.0558785
    3.69              736.77           0.0223972
    3.71             748.659          0.00858426
    3.73             760.352           0.0370778
    3.75             771.768            0.063154
    3.77             782.834           0.0869292
    3.79             793.492            0.108554
    3.81             803.689            0.128202
    3.83             813.378             0.14606
    3.85             822.521            0.162323
    3.87             831.084            0.177181
    3.89             839.037            0.190816
    3.91             846.354            0.203402
    3.93             853.012            0.215096
    3.95             858.993            0.226038
    3.97             864.278            0.236349
    3.99             868.853            0.246129
    4.01             872.705            0.255461
    4.03             875.822            0.264405
    4.05             878.195            0.273003
    4.07             879.816            0.281282
    4.09             880.678            0.289251
    4.11             880.776            0.296865
    4.13             880.107            0.304218
    4.15             878.669            0.311172
    4.17             876.461            0.317726
    4.19             873.485            0.323836
    4.21             869.744            0.329453
    4.23             865.242            0.334527
    4.25             859.987            0.339006
    4.27             853.987            0.342839
    4.29             847.253            0.345978
    4.31             839.797            0.348379
    4.33             831.635            0.350004
    4.35             822.783            0.350819
    4.37             813.261            0.350801
    4.39              803.09            0.349932
    4.41             792.294            0.348204
    4.43             780.897            0.345617
    4.45             768.929            0.342184
    4.47             756.417            0.337922
    4.49             743.395            0.332859
    4.51             729.895            0.327035
    4.53             715.951            0.320494
    4.55             701.601            0.313289
    4.57             686.881            0.305481
    4.59             671.829            0.297136
    4.61             656.485            0.288326
    4.63             640.889            0.279127
    4.65              625.08            0.269618
    4.67             609.098            0.259881
    4.69             592.983            0.250002
    4.71             576.776            0.240054
    4.73             560.514            0.230124
    4.75             544.236            0.220288
    4.77             527.977            0.210622
    4.79             511.772            0.201197
    4.81             495.654            0.192074
    4.83             479.655            0.183312
    4.85             463.803            0.174964
    4.87             448.124            0.167057
    4.89             432.642            0.159636
    4.91             417.378            0.152716
    4.93              402.35            0.146308
    4.95             387.572             0.14041
    4.97             373.056            0.135009
    4.99             358.811            0.130082
    5.01             344.842            0.125593
    5.03             331.152            0.121497
    5.05             317.743            0.117738
    5.07             304.613            0.114251
    5.09             291.759            0.110964
    5.11             279.179            0.107804
    5.13             266.871             0.10469
    5.15             254.833            0.101546
    5.17             243.066           0.0982968
    5.19             231.575           0.0948768
    5.21             220.369           0.0912297
    5.23             209.461           0.0873136
    5.25             198.872           0.0831026
    5.27             188.627           0.0785888
    5.29             178.755           0.0737828
    5.31             169.293           0.0687124
    5.33             160.277           0.0634225
    5.35             151.749           0.0579691
    5.37             143.747           0.0524171
    5.39             136.311           0.0468271
    5.41             129.472           0.0412821
    5.43             123.261           0.0358394
    5.45               117.7           0.0305547
    5.47             112.805           0.0254719
    5.49             108.589           0.0206249
    5.51             105.054           0.0160322
    5.53             102.201           0.0116998
    5.55             100.024          0.00762212
    5.57             98.5167          0.00378164
    5.59             97.6685         0.000151551
    5.61             97.4687          0.00330304
    5.63             97.9059          0.00662357
    5.65             98.9693          0.00985646
    5.67             100.649           0.0130518
    5.69             102.935           0.0162622
    5.71             105.821           0.0195411
    5.73             109.299           0.0229425
    5.75             113.365           0.0265193
    5.77             118.013           0.0303226
    5.79             123.241           0.0344004
    5.81             129.046            0.038797
    5.83             135.423           0.0435516
    5.85             142.373           0.0486976
    5.87              149.89           0.0542611
    5.89             157.972           0.0602608
    5.91             166.615           0.0667065
    5.93             175.814           0.0735988
    5.95             185.562           0.0809284
    5.97             195.851           0.0886762
    5.99             206.672            0.096813
    6.01             218.012             0.10526
    6.03             229.858            0.114087
    6.05             242.193            0.123121
    6.07             254.997            0.132337
    6.09             268.248            0.141665
    6.11             281.921            0.151032
    6.13             295.985            0.160359
    6.15             310.408            0.169568
    6.17             325.153            0.178585
    6.19              340.18            0.187328
    6.21             355.443            0.195728
    6.23             370.893            0.203717
    6.25             386.477            0.211235
    6.27             402.137            0.218229
    6.29             417.813            0.224647
    6.31              433.44             0.23048
    6.33             448.949            0.235676
    6.35              464.27             0.24023
    6.37             479.329            0.244137
    6.39             494.051            0.247402
    6.41              508.36             0.25004
    6.43             522.179            0.252072
    6.45             535.431             0.25353
    6.47             548.042            0.254452
    6.49             559.937            0.254881
    6.51             571.046            0.254855
    6.53             581.304            0.254455
    6.55             590.647            0.253702
    6.57             599.018             0.25266
    6.59             606.369             0.25138
    6.61             612.655            0.249912
    6.63             617.841            0.248303
    6.65               621.9            0.246592
    6.67             624.813            0.244814
    6.69              626.57            0.242998
    6.71             627.172            0.241165
    6.73             626.627            0.239326
    6.75             624.954            0.237486
    6.77             622.182            0.235639
    6.79             618.348            0.233771
    6.81             613.496            0.231858
    6.83             607.682            0.229869
    6.85             600.965            0.227763
    6.87             593.415            0.225492
    6.89             585.104            0.222984
    6.91             576.113            0.220228
    6.93             566.524            0.217108
    6.95             556.423             0.21357
    6.97               545.9            0.209541
    6.99             535.043            0.204947
    7.01             523.944            0.199714
    7.03             512.691            0.193769
    7.05             501.372            0.187043
    7.07             490.073            0.179469
    7.09             478.876            0.170988
    7.11              467.86            0.161537
    7.13             457.099            0.151091
    7.15             446.662            0.139606
    7.17             436.614             0.12706
    7.19             427.012            0.113439
    7.21             417.909           0.0987468
    7.23             409.353           0.0829955
    7.25             401.384           0.0662131
    7.27             394.037            0.048441
    7.29              387.34           0.0296544
    7.31             381.319            0.010162
    7.33             375.989           0.0101937
    7.35             371.364           0.0312382
    7.37             367.451           0.0528652
    7.39             364.252           0.0749575
    7.41             361.764           0.0973886
    7.43              359.98            0.120023
    7.45             358.888            0.142721
    7.47             358.472            0.165334
    7.49             358.711            0.187713
    7.51             359.579            0.209707
    7.53             361.048            0.231162
    7.55             363.083            0.251931
    7.57             365.647            0.271867
    7.59             368.696             0.29083
    7.61             372.184            0.308687
    7.63              376.06            0.325312
    7.65             380.269            0.340593
    7.67             384.753            0.354426
    7.69              389.45            0.366721
    7.71             394.295            0.377404
    7.73             399.222            0.386411
    7.75             404.161            0.393697
    7.77             409.043             0.39923
    7.79             413.799            0.402996
    7.81              418.36            0.404994
    7.83             422.661             0.40524
    7.85             426.639            0.403767
    7.87             430.234            0.400619
    7.89             433.393            0.395859
    7.91             436.068            0.389562
    7.93             438.219            0.381816
    7.95             439.812            0.372724
    7.97             440.821              0.3624
    7.99              441.23             0.35097
    8.01             441.029            0.338569
    8.03             440.215            0.325344
    8.05             438.796            0.311447
    8.07             436.783            0.297039
    8.09             434.196            0.282284
    8.11             431.058            0.267348
    8.13             427.399            0.252396
    8.15              423.25            0.237594
    8.17             418.646            0.223101
    8.19             413.624            0.209069
    8.21             408.221            0.195643
    8.23             402.473            0.182954
    8.25             396.418             0.17112
    8.27             390.092            0.160246
    8.29             383.529             0.15042
    8.31             376.763            0.141713
    8.33             369.823            0.134178
    8.35             362.739             0.12785
    8.37              355.54            0.122748
    8.39             348.249            0.118873
    8.41             340.891             0.11621
    8.43              333.49            0.114729
    8.45             326.065            0.114383
    8.47             318.636            0.115116
    8.49             311.224            0.116858
    8.51             303.846             0.11953
    8.53              296.52            0.123043
    8.55             289.262            0.127302
    8.57              282.09            0.132207
    8.59             275.018            0.137653
    8.61             268.061            0.143534
    8.63             261.235             0.14974
    8.65             254.551            0.156166
    8.67             248.024            0.162704
    8.69             241.664            0.169252
    8.71             235.482            0.175713
    8.73             229.486            0.181993
    8.75             223.685            0.188007
    8.77             218.085            0.193677
    8.79              212.69            0.198933
    8.81             207.504            0.203715
    8.83             202.529            0.207968
    8.85             197.767            0.211657
    8.87             193.215            0.214733
    8.89             188.874            0.217182
    8.91             184.741            0.218983
    8.93             180.813            0.220123
    8.95             177.087            0.220596
    8.97              173.56            0.220399
    8.99             170.227            0.219535
    9.01             167.084            0.218009
    9.03             164.128            0.215829
    9.05             161.353            0.213007
    9.07             158.756            0.209556
    9.09              156.33            0.205495
    9.11             154.071            0.200846
    9.13              151.97            0.195633
    9.15             150.021            0.189889
    9.17             148.216            0.183649
    9.19             146.544            0.176954
    9.21             144.993             0.16985
    9.23             143.553            0.162387
    9.25             142.211            0.154617
    9.27             140.951            0.146599
    9.29             139.758            0.138388
    9.31             138.616            0.130044
    9.33             137.507            0.121625
    9.35             136.416            0.113186
    9.37             135.324            0.104781
    9.39             134.215           0.0964597
    9.41             133.073           0.0882686
    9.43             131.881            0.080249
    9.45             130.625           0.0724378
    9.47             129.291           0.0648669
    9.49             127.867           0.0575632
    9.51             126.341           0.0505489
    9.53             124.706           0.0438413
    9.55             122.953           0.0374535
    9.57             121.076           0.0313956
    9.59             119.073           0.0256721
    9.61             116.941           0.0202863
    9.63             114.679           0.0152375
    9.65             112.291           0.0105229
    9.67             109.778          0.00613795
    9.69             107.147          0.00207605
    9.71             104.403          0.00167061
    9.73             101.555          0.00511095
    9.75             98.6118          0.00825477
    9.77             95.5832           0.0111125
    9.79             92.4804           0.0136951
    9.81             89.3153           0.0160138
    9.83             86.1003           0.0180801
    9.85             82.8471           0.0199113
    9.87             79.5708           0.0215069
    9.89             76.2834           0.0228857
    9.91             72.9979           0.0240596
    9.93              69.727           0.0250407
    9.95             66.4833           0.0258406
    9.97             63.2788           0.0264719
    9.99             60.1248           0.0269469
   10.01             57.0323           0.0272781
   10.03             54.0113           0.0274784
   10.05              51.071           0.0275609
   10.07             48.2199            0.027539
   10.09             45.4653           0.0274266
   10.11              42.814           0.0272379
   10.13             40.2716           0.0269876
   10.15             37.8426           0.0266906
   10.17             35.5309           0.0263624
   10.19             33.3393           0.0260188
   10.21             31.2695           0.0256757
   10.23             29.3226           0.0253489
   10.25             27.4985           0.0250542
   10.27             25.7966           0.0248066
   10.29             24.2152           0.0246198
   10.31             22.7519           0.0245058
   10.33             21.4037            0.024474
   10.35             20.1666           0.0245299
   10.37             19.0364           0.0246746
   10.39             18.0081           0.0249032
   10.41             17.0764           0.0252041
   10.43             16.2355           0.0255587
   10.45             15.4797           0.0259405
   10.47             14.8029           0.0263161
   10.49             14.1991           0.0266463
   10.51             13.6626           0.0268896
   10.53             13.1879           0.0270028
   10.55             12.7696            0.026946
   10.57              12.403           0.0266858
   10.59             12.0834           0.0261973
   10.61             11.8064           0.0253885
   10.63              11.568           0.0245055
   10.65             11.3659           0.0232917
   10.67             11.1955           0.0218613
   10.69             11.0534           0.0202407
   10.71             10.9364           0.0184618
   10.73             10.8412           0.0165591
   10.75             10.7646           0.0145685
   10.77             10.7033           0.0125248
   10.79             10.6544           0.0104608
   10.81             10.6147          0.00840648
   10.83             10.5813          0.00638864
   10.85             10.5517          0.00443062
   10.87             10.5231          0.00255248
   10.89             10.4933         0.000771224
   10.91             10.4602         0.000898968
   10.93             10.4219          0.00244644
   10.95             10.3767          0.00386182
   10.97             10.3235          0.00513776
   10.99             10.2612          0.00626881
   11.01             10.1889          0.00725123
   11.03             10.1064          0.00808297
   11.05             10.0133          0.00876353
   11.07             9.90997          0.00929402
   11.09             9.79665          0.00967707
   11.11             9.67407          0.00991687
   11.13             9.54319           0.0100191
   11.15             9.40523          0.00999112
   11.17             9.26165          0.00984156
   11.19             9.11416          0.00958065
   11.21             8.96472          0.00921997
   11.23             8.81549          0.00877242
   11.25             8.66886          0.00825207
   11.27              8.5274          0.00767404
   11.29             8.39387          0.00705431
   11.31             8.27118           0.0064095
   11.33             8.16236          0.00575658
   11.35             8.07053          0.00511259
   11.37             7.99899          0.00449746
   11.39             7.95063          0.00392145
   11.41             7.92864          0.00340176
   11.43             7.93588          0.00295106
   11.45             7.97494          0.00257943
   11.47             8.04803          0.00229367
   11.49             8.15678          0.00209653
   11.51             8.30215          0.00198608
   11.53             8.48425           0.0019551
   11.55             8.70218          0.00199085
   11.57             8.95322           0.0020875
   11.59             9.23562          0.00219382
   11.61             9.54391          0.00229887
   11.63             9.87227          0.00237321
   11.65             10.2137          0.00238752
   11.67             10.5604           0.0023153
   11.69             10.9038          0.00213567
   11.71             11.2352           0.0018359
   11.73             11.5463          0.00141327
   11.75             11.8293         0.000871028
   11.77             12.0779         0.000242331
   11.79             12.2873         0.000460327
   11.81             12.4545          0.00119848
   11.83             12.5784          0.00193624
   11.85               12.66          0.00263831
   11.87             12.7019          0.00327321
   11.89             12.7082          0.00381562
   11.91             12.6841          0.00424779
   11.93             12.6354          0.00455998
   11.95             12.5684           0.0047501
   11.97             12.4893          0.00482271
   11.99             12.4038           0.0047877
   12.01             12.3176          0.00465878
   12.03             12.2352            0.004452
   12.05             12.1607          0.00418463
   12.07             12.0972          0.00387389
   12.09             12.0473          0.00353633
   12.11             12.0124          0.00318721
   12.13             11.9935          0.00284013
   12.15              11.991           0.0025069
   12.17             12.0045          0.00219743
   12.19             12.0333          0.00191982
   12.21             12.0762           0.0016804
   12.23             12.1317          0.00148391
   12.25             12.1979          0.00133362
   12.27             12.2729          0.00123151
   12.29             12.3546          0.00117841
   12.31             12.4407          0.00117415
   12.33             12.5291          0.00121772
   12.35             12.6175          0.00130737
   12.37             12.7038          0.00144157
   12.39             12.7858          0.00161604
   12.41             12.8617          0.00182822
   12.43             12.9296          0.00207457
   12.45              12.988          0.00235139
   12.47             13.0354          0.00265483
   12.49             13.0706          0.00298103
   12.51             13.0926          0.00332618
   12.53             13.1008           0.0036866
   12.55             13.0945          0.00405881
   12.57             13.0735          0.00443963
   12.59             13.0378          0.00482619
   12.61             12.9874          0.00521604
   12.63             12.9229          0.00560719
   12.65             12.8447           0.0059981
   12.67             12.7537          0.00638786
   12.69             12.6507          0.00677581
   12.71             12.5368          0.00716201
   12.73             12.4132          0.00754693
   12.75             12.2812          0.00793138
   12.77             12.1421          0.00831648
   12.79             11.9973          0.00870359
   12.81             11.8482          0.00909413
   12.83             11.6962          0.00948942
   12.85             11.5426          0.00989061
   12.87             11.3889           0.0102985
   12.89             11.2363           0.0107136
   12.91              11.086           0.0111356
   12.93             10.9392           0.0115639
   12.95             10.7971           0.0119974
   12.97             10.6608           0.0124346
   12.99             10.5312           0.0128735
   13.01             10.4093           0.0133122
   13.03             10.2961           0.0137489
   13.05             10.1925           0.0141822
   13.07             10.0994           0.0146113
   13.09             10.0179           0.0150362
   13.11             9.94878           0.0154582
   13.13             9.89302           0.0158793
   13.15              9.8516           0.0163033
   13.17             9.82547            0.016735
   13.19             9.81565           0.0171804
   13.21             9.82313           0.0176467
   13.23             9.84892           0.0181421
   13.25             9.89404           0.0186753
   13.27             9.95955           0.0192559
   13.29             10.0465           0.0198934
   13.31             10.1559           0.0205974
   13.33             10.2888           0.0213772
   13.35             10.4463           0.0222418
   13.37             10.6296           0.0231989
   13.39             10.8398           0.0242555
   13.41             11.0778            0.025417
   13.43              11.345           0.0266872
   13.45             11.6424           0.0280683
   13.47             11.9713           0.0295602
   13.49             12.3326           0.0311603
   13.51             12.7275           0.0328639
   13.53             13.1569           0.0346631
   13.55             13.6218           0.0365476
   13.57             14.1229           0.0385037
   13.59             14.6606           0.0405152
   13.61             15.2351           0.0425626
   13.63             15.8463           0.0446239
   13.65             16.4937           0.0466746
   13.67             17.1761           0.0486881
   13.69              17.892           0.0506362
   13.71              18.639           0.0524898
   13.73             19.4142           0.0542196
   13.75             20.2138           0.0557971
   13.77             21.0333            0.057195
   13.79             21.8675           0.0583883
   13.81             22.7098           0.0593562
   13.83             23.5534           0.0600807
   13.85             24.3908           0.0605488
   13.87             25.2137           0.0607526
   13.89             26.0136           0.0606889
   13.91             26.7817           0.0603598
   13.93             27.5091           0.0597718
   13.95             28.1873           0.0589356
   13.97              28.808           0.0578653
   13.99             29.3637           0.0565776
   14.01             29.8478           0.0550909
   14.03             30.2548           0.0534245
   14.05             30.5804           0.0515981
   14.07             30.8218            0.049631
   14.09             30.9776           0.0475421
   14.11             31.0478             0.04535
   14.13              31.034           0.0430709
   14.15             30.9389           0.0407218
   14.17             30.7669           0.0383187
   14.19              30.523           0.0358773
   14.21             30.2135           0.0334129
   14.23             29.8453           0.0309405
   14.25             29.4257           0.0284752
   14.27             28.9624           0.0260314
   14.29             28.4634           0.0236231
   14.31             27.9365           0.0212635
   14.33             27.3892           0.0189648
   14.35             26.8288           0.0167376
   14.37             26.2623           0.0145908
   14.39             25.6957           0.0125314
   14.41             25.1349           0.0105644
   14.43             24.5848          0.00869205
   14.45             24.0498          0.00691477
   14.47             23.5334          0.00523049
   14.49             23.0386          0.00363507
   14.51             22.5678          0.00212248
   14.53             22.1225         0.000685045
   14.55             21.7039         0.000686208
   14.57             21.3125          0.00200127
   14.59             20.9483          0.00327051
   14.61              20.611          0.00450464
   14.63             20.2999          0.00571412
   14.65              20.014          0.00690886
   14.67             19.7519          0.00809787
   14.69             19.5124          0.00928896
   14.71             19.2939           0.0104885
   14.73              19.095           0.0117013
   14.75             18.9139           0.0129304
   14.77             18.7494           0.0141768
   14.79             18.6002           0.0154397
   14.81              18.465           0.0167164
   14.83              18.343           0.0180027
   14.85             18.2336           0.0192923
   14.87             18.1363           0.0205777
   14.89              18.051           0.0218502
   14.91             17.9781           0.0230999
   14.93             17.9178           0.0243163
   14.95             17.8712           0.0254886
   14.97             17.8392           0.0266057
   14.99             17.8232           0.0276565
   15.01             17.8247           0.0286307
   15.03             17.8453           0.0295176
   15.05             17.8869           0.0303078
   15.07             17.9513           0.0309919
   15.09             18.0404           0.0315612
   15.11             18.1563           0.0320072
   15.13             18.3008           0.0323218
   15.15             18.4758           0.0324966
   15.17             18.6832           0.0325236
   15.19             18.9249           0.0323943
   15.21             19.2026           0.0321006
   15.23             19.5182           0.0316343
   15.25             19.8735           0.0309874
   15.27             20.2702           0.0301526
   15.29               20.71           0.0291233
   15.31             21.1948            0.027894
   15.33             21.7263           0.0264607
   15.35             22.3061           0.0248211
   15.37             22.9359           0.0229748
   15.39             23.6172           0.0209233
   15.41             24.3515           0.0186709
   15.43             25.1402           0.0162239
   15.45             25.9844           0.0135912
   15.47             26.8852           0.0107844
   15.49             27.8433          0.00781745
   15.51             28.8594          0.00470661
   15.53             29.9336          0.00147079
   15.55             31.0662          0.00186894
   15.57             32.2567          0.00528923
   15.59             33.5046          0.00876481
   15.61             34.8088           0.0122685
   15.63             36.1681           0.0157716
   15.65             37.5807           0.0192437
   15.67             39.0445           0.0226535
   15.69             40.5569           0.0259684
   15.71             42.1149           0.0291555
   15.73             43.7151           0.0321815
   15.75             45.3537           0.0350128
   15.77             47.0265           0.0376162
   15.79             48.7286           0.0399593
   15.81             50.4551           0.0420105
   15.83             52.2003           0.0437391
   15.85             53.9583           0.0451182
   15.87              55.723           0.0461209
   15.89             57.4876           0.0467234
   15.91             59.2453            0.046905
   15.93              60.989           0.0466483
   15.95             62.7112           0.0459393
   15.97             64.4044           0.0447679
   15.99             66.0609           0.0431284
   16.01              67.673           0.0410191
   16.03             69.2331           0.0384432
   16.05             70.7333           0.0354086
   16.07             72.1662           0.0319278
   16.09             73.5244           0.0280184
   16.11             74.8009           0.0237022
   16.13             75.9887           0.0190072
   16.15             77.0815           0.0139647
   16.17             78.0731          0.00861109
   16.19             78.9581          0.00298658
   16.21             79.7314          0.00286454
   16.23             80.3885          0.00889416
   16.25             80.9254           0.0150523
   16.27             81.3389            0.021285
   16.29             81.6261           0.0275369
   16.31             81.7851           0.0337512
   16.33             81.8143             0.03987
   16.35             81.7128           0.0458356
   16.37             81.4802           0.0515908
   16.39             81.1169           0.0570798
   16.41             80.6235           0.0622492
   16.43             80.0013           0.0670485
   16.45              79.252           0.0714328
   16.47             78.3777           0.0753576
   16.49              77.381           0.0787911
   16.51             76.2649           0.0817038
   16.53             75.0329           0.0840757
   16.55             73.6888            0.085895
   16.57             72.2373           0.0871594
   16.59             70.6834           0.0878762
   16.61             69.0331           0.0880626
   16.63              67.293           0.0877449
   16.65             65.4708           0.0869588
   16.67             63.5753           0.0857472
   16.69             61.6165           0.0841595
   16.71             59.6055           0.0822493
   16.73             57.5547           0.0800724
   16.75             55.4776           0.0776847
   16.77             53.3885             0.07514
   16.79             51.3026           0.0724881
   16.81             49.2356           0.0697734
   16.83             47.2032           0.0670337
   16.85             45.2208           0.0643007
   16.87             43.3032           0.0615986
   16.89             41.4643           0.0589456
   16.91             39.7166           0.0563545
   16.93             38.0712           0.0538335
   16.95             36.5375           0.0513874
   16.97              35.123           0.0490185
   16.99             33.8336           0.0467274
   17.01             32.6733           0.0445136
   17.03             31.6445           0.0423761
   17.05              30.748           0.0403139
   17.07             29.9832           0.0383257
   17.09             29.3481           0.0364103
   17.11             28.8399           0.0345665
   17.13             28.4544           0.0327927
   17.15             28.1871           0.0310884
   17.17             28.0323           0.0294511
   17.19             27.9841           0.0278791
   17.21             28.0362             0.02637
   17.23             28.1816           0.0249211
   17.25             28.4133           0.0235291
   17.27             28.7243           0.0221904
   17.29             29.1073           0.0209009
   17.31             29.5555           0.0196602
   17.33              30.061           0.0184571
   17.35             30.6173             0.01729
   17.37             31.2176           0.0161542
   17.39             31.8556           0.0150451
   17.41             32.5252           0.0139584
   17.43              33.221           0.0128901
   17.45              33.938           0.0118367
   17.47             34.6719           0.0107952
   17.49             35.4189          0.00976328
   17.51             36.1763          0.00873953
   17.53              36.942          0.00772326
   17.55             37.7147          0.00671472
   17.57             38.4944          0.00571514
   17.59             39.2817          0.00472674
   17.61             40.0787          0.00375272
   17.63              40.888          0.00279738
   17.65             41.7138           0.0018659
   17.67             42.5612         0.000964452
   17.69             43.4362         0.000100124
   17.71             44.3463         0.000719164
   17.73             45.2996          0.00148472
   17.75             46.3053          0.00218716
   17.77             47.3734          0.00281651
   17.79             48.5148          0.00336231
   17.81             49.7407          0.00381374
   17.83              51.063          0.00415978
   17.85             52.4937          0.00438937
   17.87             54.0448          0.00449153
   17.89             55.7281          0.00445579
   17.91             57.5548           0.0042723
   17.93             59.5354          0.00393224
   17.95             61.6791          0.00342825
   17.97             63.9936          0.00275484
   17.99             66.4851          0.00190895
   18.01             69.1573         0.000890521
   18.03             72.0114         0.000296874
   18.05             75.0462          0.00164541
   18.07             78.2571          0.00314239
   18.09             81.6364          0.00476968
   18.11             85.1732          0.00650332
   18.13             88.8529          0.00831322
   18.15             92.6577            0.010163
   18.17             96.5667           0.0120106
   18.19             100.556           0.0138083
   18.21             104.599           0.0155041
   18.23             108.666           0.0170425
   18.25             112.728           0.0183664
   18.27             116.753           0.0194189
   18.29              120.71           0.0201448
   18.31             124.566           0.0204931
   18.33              128.29           0.0204188
   18.35             131.854           0.0198849
   18.37              135.23           0.0188636
   18.39             138.393           0.0173381
   18.41              141.32           0.0153025
   18.43             143.993           0.0127632
   18.45             146.396           0.0097377
   18.47             148.515          0.00625481
   18.49             150.342          0.00235321
   18.51              151.87          0.00191969
   18.53             153.097          0.00650925
   18.55              154.02           0.0113553
   18.57             154.644           0.0163947
   18.59             154.972           0.0215598
   18.61             155.011           0.0267851
   18.63             154.769            0.032005
   18.65             154.256           0.0371564
   18.67             153.483           0.0421798
   18.69             152.463           0.0470198
   18.71             151.208           0.0516264
   18.73             149.732           0.0559549
   18.75             148.049           0.0599669
   18.77             146.174             0.06363
   18.79             144.121           0.0669179
   18.81             141.906           0.0698105
   18.83             139.543           0.0722936
   18.85             137.047           0.0743587
   18.87             134.434           0.0760025
   18.89             131.717           0.0772268
   18.91             128.911            0.078038
   18.93             126.031           0.0784464
   18.95              123.09           0.0784663
   18.97             120.103           0.0781152
   18.99             117.081           0.0774134
   19.01             114.039           0.0763838
   19.03             110.987            0.075051
   19.05              107.94           0.0734416
   19.07             104.906           0.0715831
   19.09             101.898           0.0695039
   19.11             98.9244           0.0672329
   19.13             95.9957           0.0647992
   19.15             93.1204           0.0622317
   19.17             90.3063           0.0595587
   19.19             87.5607           0.0568078
   19.21             84.8901           0.0540057
   19.23             82.2999           0.0511776
   19.25             79.7951           0.0483476
   19.27             77.3795            0.045538
   19.29             75.0563           0.0427693
   19.31             72.8278           0.0400604
   19.33             70.6953           0.0374281
   19.35             68.6594           0.0348873
   19.37               66.72           0.0324508
   19.39              64.876           0.0301296
   19.41             63.1257           0.0279325
   19.43             61.4667           0.0258666
   19.45             59.8958           0.0239369
   19.47             58.4093            0.022146
   19.49             57.0032           0.0204976
   19.51             55.6726           0.0189908
   19.53             54.4123           0.0176243
   19.55             53.2169           0.0163956
   19.57             52.0806           0.0153009
   19.59             50.9975           0.0143355
   19.61             49.9615           0.0134938
   19.63             48.9664           0.0127694
   19.65             48.0062           0.0121553
   19.67             47.0748            0.011644
   19.69             46.1664           0.0112276
   19.71             45.2753           0.0108978
   19.73             44.3962           0.0106465
   19.75             43.5241           0.0104653
   19.77             42.6542           0.0103457
   19.79             41.7825           0.0102796
   19.81             40.9051            0.010259
   19.83             40.0187            0.010276
   19.85             39.1206           0.0103233
   19.87             38.2085           0.0103936
   19.89             37.2807           0.0104804
   19.91              36.336           0.0105773
   19.93             35.3736           0.0106786
   19.95             34.3933           0.0107789
   19.97             33.3954           0.0108736
   19.99             32.3807           0.0109582
   20.01             31.3501           0.0110292
