## w(eV)         sigma(Sm^-1)     kappa(W(mK)^-1)        L12/e(Am^-1)      L22/e^2(Wm^-1)
    0.01         1.17331e+06             1238.53        -1.96439e+07         4.46212e+08
    0.03         1.17306e+06             1238.55        -1.96404e+07         4.46169e+08
    0.05         1.17253e+06              1238.5        -1.96325e+07         4.46047e+08
    0.07         1.17171e+06             1238.45        -1.96203e+07         4.45865e+08
    0.09         1.17062e+06             1238.35         -1.9604e+07         4.45614e+08
    0.11         1.16926e+06             1238.23        -1.95836e+07         4.45302e+08
    0.13         1.16763e+06             1238.08        -1.95592e+07         4.44928e+08
    0.15         1.16573e+06             1237.92        -1.95308e+07         4.44492e+08
    0.17         1.16357e+06             1237.74        -1.94984e+07         4.43996e+08
    0.19         1.16115e+06             1237.53         -1.9462e+07         4.43438e+08
    0.21         1.15847e+06             1237.31        -1.94218e+07         4.42822e+08
    0.23         1.15554e+06             1237.08        -1.93777e+07         4.42145e+08
    0.25         1.15235e+06             1236.83        -1.93298e+07          4.4141e+08
    0.27         1.14892e+06             1236.57        -1.92782e+07         4.40617e+08
    0.29         1.14525e+06              1236.3        -1.92228e+07         4.39767e+08
    0.31         1.14135e+06             1236.02        -1.91638e+07          4.3886e+08
    0.33         1.13721e+06             1235.74        -1.91012e+07         4.37897e+08
    0.35         1.13284e+06             1235.45         -1.9035e+07          4.3688e+08
    0.37         1.12826e+06             1235.17        -1.89654e+07          4.3581e+08
    0.39         1.12346e+06             1234.89        -1.88924e+07         4.34686e+08
    0.41         1.11844e+06             1234.61        -1.88162e+07         4.33511e+08
    0.43         1.11323e+06             1234.34        -1.87366e+07         4.32285e+08
    0.45         1.10782e+06             1234.09        -1.86539e+07          4.3101e+08
    0.47         1.10222e+06             1233.85        -1.85681e+07         4.29686e+08
    0.49         1.09644e+06             1233.62        -1.84794e+07         4.28316e+08
    0.51         1.09048e+06             1233.42        -1.83877e+07         4.26899e+08
    0.53         1.08435e+06             1233.24        -1.82932e+07         4.25437e+08
    0.55         1.07806e+06             1233.09        -1.81959e+07         4.23932e+08
    0.57         1.07161e+06             1232.97         -1.8096e+07         4.22384e+08
    0.59         1.06502e+06             1232.89        -1.79936e+07         4.20795e+08
    0.61         1.05829e+06             1232.84        -1.78886e+07         4.19167e+08
    0.63         1.05142e+06             1232.83        -1.77813e+07           4.175e+08
    0.65         1.04443e+06             1232.86        -1.76717e+07         4.15797e+08
    0.67         1.03732e+06             1232.94        -1.75599e+07         4.14057e+08
    0.69          1.0301e+06             1233.06        -1.74461e+07         4.12283e+08
    0.71         1.02277e+06             1233.24        -1.73302e+07         4.10476e+08
    0.73         1.01536e+06             1233.48        -1.72124e+07         4.08637e+08
    0.75         1.00785e+06             1233.77        -1.70928e+07         4.06768e+08
    0.77         1.00026e+06             1234.12        -1.69715e+07         4.04869e+08
    0.79              992595             1234.54        -1.68486e+07         4.02943e+08
    0.81              984865             1235.02        -1.67241e+07         4.00991e+08
    0.83              977075             1235.57        -1.65982e+07         3.99014e+08
    0.85              969232             1236.18         -1.6471e+07         3.97013e+08
    0.87              961343             1236.87        -1.63425e+07         3.94989e+08
    0.89              953413             1237.63        -1.62129e+07         3.92945e+08
    0.91              945451             1238.46        -1.60822e+07          3.9088e+08
    0.93              937461             1239.37        -1.59505e+07         3.88798e+08
    0.95              929450             1240.35        -1.58178e+07         3.86698e+08
    0.97              921424             1241.41        -1.56844e+07         3.84582e+08
    0.99              913389             1242.55        -1.55503e+07         3.82451e+08
    1.01              905349             1243.77        -1.54155e+07         3.80307e+08
    1.03              897311             1245.06        -1.52801e+07          3.7815e+08
    1.05              889279             1246.43        -1.51443e+07         3.75982e+08
    1.07              881259             1247.87         -1.5008e+07         3.73804e+08
    1.09              873254             1249.39        -1.48715e+07         3.71618e+08
    1.11              865269             1250.99        -1.47346e+07         3.69424e+08
    1.13              857309             1252.65        -1.45976e+07         3.67223e+08
    1.15              849377             1254.39        -1.44604e+07         3.65017e+08
    1.17              841476              1256.2        -1.43232e+07         3.62806e+08
    1.19              833612             1258.07        -1.41861e+07         3.60593e+08
    1.21              825786             1260.01         -1.4049e+07         3.58377e+08
    1.23              818001             1262.01         -1.3912e+07         3.56159e+08
    1.25              810261             1264.06        -1.37753e+07         3.53942e+08
    1.27              802568             1266.17        -1.36388e+07         3.51726e+08
    1.29              794924             1268.33        -1.35027e+07         3.49511e+08
    1.31              787332             1270.54         -1.3367e+07           3.473e+08
    1.33              779793             1272.79        -1.32317e+07         3.45092e+08
    1.35              772309             1275.07        -1.30969e+07         3.42889e+08
    1.37              764881             1277.39        -1.29627e+07         3.40692e+08
    1.39              757511             1279.74         -1.2829e+07         3.38502e+08
    1.41              750200             1282.12         -1.2696e+07          3.3632e+08
    1.43              742950             1284.51        -1.25638e+07         3.34146e+08
    1.45              735759             1286.92        -1.24322e+07         3.31982e+08
    1.47              728630             1289.33        -1.23015e+07         3.29829e+08
    1.49              721563             1291.75        -1.21716e+07         3.27687e+08
    1.51              714558             1294.16        -1.20427e+07         3.25557e+08
    1.53              707616             1296.57        -1.19146e+07         3.23442e+08
    1.55              700736             1298.96        -1.17876e+07          3.2134e+08
    1.57              693918             1301.34        -1.16615e+07         3.19254e+08
    1.59              687163             1303.68        -1.15366e+07         3.17184e+08
    1.61              680470                1306        -1.14127e+07         3.15132e+08
    1.63              673839             1308.28          -1.129e+07         3.13098e+08
    1.65              667270             1310.53        -1.11685e+07         3.11083e+08
    1.67              660763             1312.72        -1.10483e+07         3.09089e+08
    1.69              654316             1314.86        -1.09293e+07         3.07115e+08
    1.71              647930             1316.95        -1.08116e+07         3.05165e+08
    1.73              641605             1318.97        -1.06953e+07         3.03237e+08
    1.75              635339             1320.93        -1.05805e+07         3.01334e+08
    1.77              629132             1322.81         -1.0467e+07         2.99456e+08
    1.79              622985             1324.62        -1.03551e+07         2.97604e+08
    1.81              616896             1326.35        -1.02447e+07          2.9578e+08
    1.83              610866                1328        -1.01359e+07         2.93985e+08
    1.85              604893             1329.55        -1.00287e+07         2.92219e+08
    1.87              598979             1331.02        -9.92312e+06         2.90484e+08
    1.89              593122             1332.39        -9.81928e+06         2.88781e+08
    1.91              587322             1333.66         -9.7172e+06         2.87111e+08
    1.93              581581             1334.83         -9.6169e+06         2.85475e+08
    1.95              575897             1335.89        -9.51845e+06         2.83874e+08
    1.97              570270             1336.85        -9.42188e+06         2.82309e+08
    1.99              564702              1337.7        -9.32724e+06         2.80782e+08
    2.01              559192             1338.43        -9.23457e+06         2.79293e+08
    2.03              553741             1339.05        -9.14392e+06         2.77845e+08
    2.05              548350             1339.55        -9.05533e+06         2.76437e+08
    2.07              543018             1339.94        -8.96885e+06         2.75071e+08
    2.09              537748              1340.2        -8.88453e+06         2.73748e+08
    2.11              532540             1340.34        -8.80241e+06          2.7247e+08
    2.13              527394             1340.36        -8.72255e+06         2.71237e+08
    2.15              522313             1340.25        -8.64497e+06         2.70051e+08
    2.17              517296             1340.02        -8.56972e+06         2.68912e+08
    2.19              512346             1339.65        -8.49686e+06         2.67822e+08
    2.21              507465             1339.16        -8.42642e+06         2.66782e+08
    2.23              502653             1338.53        -8.35845e+06         2.65792e+08
    2.25              497912             1337.77        -8.29299e+06         2.64854e+08
    2.27              493244             1336.87        -8.23009e+06          2.6397e+08
    2.29              488651             1335.84        -8.16979e+06         2.63139e+08
    2.31              484135             1334.67        -8.11213e+06         2.62363e+08
    2.33              479698             1333.36        -8.05714e+06         2.61642e+08
    2.35              475342              1331.9        -8.00487e+06         2.60978e+08
    2.37              471069              1330.3        -7.95535e+06         2.60371e+08
    2.39              466882             1328.55        -7.90862e+06         2.59823e+08
    2.41              462782             1326.65        -7.86472e+06         2.59333e+08
    2.43              458772              1324.6        -7.82366e+06         2.58903e+08
    2.45              454855             1322.39         -7.7855e+06         2.58533e+08
    2.47              451032             1320.02        -7.75024e+06         2.58224e+08
    2.49              447306              1317.5        -7.71793e+06         2.57976e+08
    2.51              443680              1314.8        -7.68859e+06         2.57791e+08
    2.53              440156             1311.94        -7.66222e+06         2.57667e+08
    2.55              436735              1308.9        -7.63886e+06         2.57605e+08
    2.57              433421             1305.69        -7.61851e+06         2.57607e+08
    2.59              430216              1302.3        -7.60119e+06         2.57671e+08
    2.61              427121             1298.73        -7.58692e+06         2.57798e+08
    2.63              424140             1294.97         -7.5757e+06         2.57988e+08
    2.65              421273             1291.03        -7.56752e+06         2.58241e+08
    2.67              418524             1286.89         -7.5624e+06         2.58556e+08
    2.69              415894             1282.55        -7.56032e+06         2.58935e+08
    2.71              413384             1278.02        -7.56129e+06         2.59375e+08
    2.73              410996             1273.29        -7.56529e+06         2.59877e+08
    2.75              408732             1268.35         -7.5723e+06         2.60441e+08
    2.77              406594             1263.21        -7.58231e+06         2.61065e+08
    2.79              404582             1257.87        -7.59529e+06         2.61749e+08
    2.81              402697             1252.32        -7.61122e+06         2.62492e+08
    2.83              400940             1246.56        -7.63006e+06         2.63293e+08
    2.85              399312             1240.59        -7.65179e+06         2.64151e+08
    2.87              397813             1234.42        -7.67636e+06         2.65066e+08
    2.89              396445             1228.05        -7.70372e+06         2.66035e+08
    2.91              395205             1221.47        -7.73384e+06         2.67058e+08
    2.93              394096              1214.7        -7.76665e+06         2.68133e+08
    2.95              393115             1207.73         -7.8021e+06         2.69258e+08
    2.97              392263             1200.57        -7.84013e+06         2.70433e+08
    2.99              391539             1193.23        -7.88068e+06         2.71655e+08
    3.01              390942              1185.7        -7.92366e+06         2.72922e+08
    3.03              390469                1178        -7.96902e+06         2.74233e+08
    3.05              390121             1170.14        -8.01666e+06         2.75586e+08
    3.07              389895             1162.12        -8.06651e+06         2.76978e+08
    3.09              389789             1153.94        -8.11848e+06         2.78407e+08
    3.11              389800             1145.63        -8.17247e+06         2.79871e+08
    3.13              389927             1137.18         -8.2284e+06         2.81367e+08
    3.15              390167             1128.62        -8.28617e+06         2.82894e+08
    3.17              390516             1119.94        -8.34567e+06         2.84449e+08
    3.19              390971             1111.16        -8.40679e+06         2.86028e+08
    3.21              391528             1102.28        -8.46942e+06          2.8763e+08
    3.23              392185             1093.33        -8.53345e+06         2.89251e+08
    3.25              392937             1084.31        -8.59877e+06         2.90889e+08
    3.27              393780             1075.23        -8.66525e+06          2.9254e+08
    3.29              394709              1066.1        -8.73277e+06         2.94203e+08
    3.31              395720             1056.93        -8.80122e+06         2.95874e+08
    3.33              396809             1047.74        -8.87045e+06         2.97549e+08
    3.35              397970             1038.53        -8.94035e+06         2.99227e+08
    3.37              399198             1029.32        -9.01077e+06         3.00903e+08
    3.39              400488             1020.11         -9.0816e+06         3.02575e+08
    3.41              401835             1010.91        -9.15269e+06         3.04239e+08
    3.43              403232             1001.73         -9.2239e+06         3.05893e+08
    3.45              404675             992.583        -9.29511e+06         3.07532e+08
    3.47              406157             983.472        -9.36618e+06         3.09155e+08
    3.49              407672             974.404        -9.43696e+06         3.10758e+08
    3.51              409216             965.387        -9.50733e+06         3.12338e+08
    3.53              410780             956.426        -9.57714e+06         3.13891e+08
    3.55              412360             947.527        -9.64626e+06         3.15415e+08
    3.57              413949             938.695        -9.71455e+06         3.16906e+08
    3.59              415541             929.933        -9.78189e+06         3.18362e+08
    3.61              417130             921.246        -9.84813e+06         3.19779e+08
    3.63              418709             912.635        -9.91315e+06         3.21155e+08
    3.65              420273             904.105        -9.97682e+06         3.22487e+08
    3.67              421815             895.657         -1.0039e+07         3.23772e+08
    3.69              423330             887.291        -1.00996e+07         3.25007e+08
    3.71              424811             879.009        -1.01585e+07          3.2619e+08
    3.73              426252             870.812        -1.02155e+07         3.27318e+08
    3.75              427648             862.699        -1.02706e+07         3.28389e+08
    3.77              428993             854.671        -1.03236e+07         3.29401e+08
    3.79              430281             846.725        -1.03745e+07         3.30351e+08
    3.81              431508             838.862        -1.04231e+07         3.31238e+08
    3.83              432667             831.079        -1.04693e+07         3.32059e+08
    3.85              433755             823.376        -1.05131e+07         3.32812e+08
    3.87              434766             815.749        -1.05544e+07         3.33497e+08
    3.89              435695             808.197         -1.0593e+07         3.34111e+08
    3.91              436538             800.718         -1.0629e+07         3.34653e+08
    3.93              437292              793.31        -1.06622e+07         3.35122e+08
    3.95              437953             785.969        -1.06926e+07         3.35516e+08
    3.97              438515             778.692        -1.07201e+07         3.35836e+08
    3.99              438978             771.478        -1.07447e+07         3.36079e+08
    4.01              439337             764.323        -1.07664e+07         3.36246e+08
    4.03              439589             757.225         -1.0785e+07         3.36336e+08
    4.05              439733             750.182        -1.08006e+07         3.36349e+08
    4.07              439766             743.189        -1.08132e+07         3.36285e+08
    4.09              439687             736.245        -1.08227e+07         3.36143e+08
    4.11              439493             729.348        -1.08292e+07         3.35925e+08
    4.13              439185             722.494        -1.08326e+07          3.3563e+08
    4.15              438761             715.682        -1.08329e+07          3.3526e+08
    4.17              438221             708.909        -1.08302e+07         3.34814e+08
    4.19              437564             702.174        -1.08245e+07         3.34295e+08
    4.21              436791             695.475        -1.08158e+07         3.33703e+08
    4.23              435904             688.809        -1.08041e+07         3.33039e+08
    4.25              434901             682.177        -1.07896e+07         3.32306e+08
    4.27              433786             675.575        -1.07722e+07         3.31504e+08
    4.29              432559             669.004         -1.0752e+07         3.30636e+08
    4.31              431223             662.462        -1.07291e+07         3.29703e+08
    4.33              429780             655.949        -1.07035e+07         3.28707e+08
    4.35              428232             649.465        -1.06754e+07         3.27652e+08
    4.37              426583             643.008        -1.06448e+07         3.26539e+08
    4.39              424836              636.58        -1.06118e+07         3.25371e+08
    4.41              422994             630.181        -1.05765e+07         3.24151e+08
    4.43              421062             623.811         -1.0539e+07         3.22881e+08
    4.45              419044              617.47        -1.04994e+07         3.21565e+08
    4.47              416943              611.16        -1.04579e+07         3.20205e+08
    4.49              414766             604.882        -1.04145e+07         3.18805e+08
    4.51              412516             598.637        -1.03694e+07         3.17367e+08
    4.53              410200             592.426        -1.03228e+07         3.15897e+08
    4.55              407823             586.253        -1.02746e+07         3.14396e+08
    4.57              405390             580.118        -1.02252e+07         3.12868e+08
    4.59              402907             574.023        -1.01746e+07         3.11317e+08
    4.61              400382             567.972         -1.0123e+07         3.09747e+08
    4.63              397818             561.967        -1.00704e+07         3.08161e+08
    4.65              395225              556.01        -1.00172e+07         3.06564e+08
    4.67              392607             550.105        -9.96337e+06         3.04958e+08
    4.69              389972             544.254        -9.90912e+06         3.03348e+08
    4.71              387326             538.462        -9.85461e+06         3.01737e+08
    4.73              384678             532.731        -9.79998e+06         3.00129e+08
    4.75              382032             527.066         -9.7454e+06         2.98529e+08
    4.77              379397              521.47        -9.69102e+06          2.9694e+08
    4.79              376780             515.947          -9.637e+06         2.95365e+08
    4.81              374189             510.502         -9.5835e+06         2.93808e+08
    4.83              371629             505.138        -9.53067e+06         2.92273e+08
    4.85              369108             499.861        -9.47867e+06         2.90765e+08
    4.87              366634             494.674        -9.42766e+06         2.89285e+08
    4.89              364214             489.583        -9.37778e+06         2.87838e+08
    4.91              361854             484.592        -9.32917e+06         2.86428e+08
    4.93              359562             479.707          -9.282e+06         2.85056e+08
    4.95              357344             474.931         -9.2364e+06         2.83728e+08
    4.97              355208             470.271        -9.19251e+06         2.82445e+08
    4.99              353159             465.732        -9.15047e+06         2.81211e+08
    5.01              351205             461.318        -9.11041e+06         2.80029e+08
    5.03              349352             457.035        -9.07245e+06         2.78902e+08
    5.05              347606             452.887        -9.03673e+06         2.77832e+08
    5.07              345972             448.881        -9.00336e+06         2.76821e+08
    5.09              344458             445.021        -8.97246e+06         2.75873e+08
    5.11              343068             441.313        -8.94413e+06         2.74989e+08
    5.13              341808              437.76        -8.91847e+06         2.74171e+08
    5.15              340683             434.368        -8.89558e+06         2.73422e+08
    5.17              339697             431.142        -8.87556e+06         2.72742e+08
    5.19              338857             428.085        -8.85848e+06         2.72134e+08
    5.21              338165             425.202        -8.84443e+06         2.71599e+08
    5.23              337626             422.497        -8.83348e+06         2.71139e+08
    5.25              337245             419.974        -8.82569e+06         2.70753e+08
    5.27              337024             417.635        -8.82112e+06         2.70444e+08
    5.29              336966             415.483        -8.81982e+06         2.70211e+08
    5.31              337075             413.521        -8.82183e+06         2.70056e+08
    5.33              337353             411.751         -8.8272e+06         2.69979e+08
    5.35              337803             410.173        -8.83595e+06          2.6998e+08
    5.37              338427             408.791        -8.84811e+06         2.70058e+08
    5.39              339226             407.603        -8.86369e+06         2.70214e+08
    5.41              340201             406.609         -8.8827e+06         2.70448e+08
    5.43              341354              405.81        -8.90514e+06         2.70758e+08
    5.45              342685             405.204        -8.93101e+06         2.71145e+08
    5.47              344195              404.79        -8.96028e+06         2.71606e+08
    5.49              345883             404.565        -8.99296e+06         2.72142e+08
    5.51              347749             404.527        -9.02899e+06         2.72751e+08
    5.53              349793             404.672        -9.06836e+06         2.73432e+08
    5.55              352014             404.997        -9.11102e+06         2.74183e+08
    5.57              354410             405.497        -9.15693e+06         2.75002e+08
    5.59              356980             406.168        -9.20602e+06         2.75888e+08
    5.61              359721             407.004        -9.25825e+06         2.76839e+08
    5.63              362632                 408        -9.31354e+06         2.77852e+08
    5.65              365709             409.149        -9.37183e+06         2.78926e+08
    5.67              368950             410.446        -9.43303e+06         2.80059e+08
    5.69              372352             411.884        -9.49707e+06         2.81247e+08
    5.71              375911             413.455        -9.56385e+06         2.82489e+08
    5.73              379624             415.152        -9.63328e+06         2.83781e+08
    5.75              383486             416.967        -9.70526e+06         2.85121e+08
    5.77              387493             418.894        -9.77969e+06         2.86507e+08
    5.79              391640             420.923        -9.85647e+06         2.87934e+08
    5.81              395923             423.048        -9.93548e+06         2.89402e+08
    5.83              400337             425.259        -1.00166e+07         2.90906e+08
    5.85              404875             427.549        -1.00997e+07         2.92443e+08
    5.87              409534             429.909        -1.01847e+07         2.94011e+08
    5.89              414306             432.331        -1.02715e+07         2.95606e+08
    5.91              419186             434.808        -1.03598e+07         2.97226e+08
    5.93              424168              437.33        -1.04497e+07         2.98866e+08
    5.95              429246              439.89        -1.05409e+07         3.00524e+08
    5.97              434413              442.48        -1.06334e+07         3.02198e+08
    5.99              439662             445.092         -1.0727e+07         3.03883e+08
    6.01              444987             447.718        -1.08215e+07         3.05576e+08
    6.03              450382             450.352        -1.09168e+07         3.07275e+08
    6.05              455838             452.985        -1.10128e+07         3.08977e+08
    6.07              461349              455.61        -1.11094e+07         3.10678e+08
    6.09              466907             458.222        -1.12064e+07         3.12375e+08
    6.11              472506             460.812        -1.13036e+07         3.14066e+08
    6.13              478139             463.376         -1.1401e+07         3.15748e+08
    6.15              483797             465.906        -1.14984e+07         3.17417e+08
    6.17              489474             468.396        -1.15956e+07         3.19072e+08
    6.19              495162             470.842        -1.16926e+07          3.2071e+08
    6.21              500854             473.239        -1.17892e+07         3.22327e+08
    6.23              506543              475.58        -1.18853e+07         3.23922e+08
    6.25              512221             477.862        -1.19807e+07         3.25493e+08
    6.27              517880             480.079        -1.20753e+07         3.27036e+08
    6.29              523515             482.229         -1.2169e+07         3.28551e+08
    6.31              529116             484.308        -1.22618e+07         3.30034e+08
    6.33              534678             486.311        -1.23534e+07         3.31485e+08
    6.35              540194             488.237        -1.24437e+07           3.329e+08
    6.37              545656             490.082        -1.25327e+07         3.34279e+08
    6.39              551058             491.844        -1.26202e+07          3.3562e+08
    6.41              556392             493.521        -1.27062e+07         3.36922e+08
    6.43              561653             495.111        -1.27905e+07         3.38182e+08
    6.45              566834             496.613        -1.28731e+07         3.39401e+08
    6.47              571929             498.026        -1.29539e+07         3.40577e+08
    6.49              576932             499.348        -1.30327e+07         3.41709e+08
    6.51              581837             500.581        -1.31095e+07         3.42796e+08
    6.53              586637             501.722        -1.31843e+07         3.43838e+08
    6.55              591329             502.774        -1.32569e+07         3.44834e+08
    6.57              595905             503.735        -1.33273e+07         3.45783e+08
    6.59              600362             504.607        -1.33955e+07         3.46686e+08
    6.61              604693             505.391        -1.34613e+07         3.47542e+08
    6.63              608895             506.087        -1.35247e+07         3.48352e+08
    6.65              612964             506.698        -1.35857e+07         3.49114e+08
    6.67              616893             507.226        -1.36443e+07          3.4983e+08
    6.69              620681             507.671        -1.37003e+07           3.505e+08
    6.71              624322             508.037        -1.37538e+07         3.51123e+08
    6.73              627814             508.325        -1.38047e+07         3.51702e+08
    6.75              631153             508.538        -1.38531e+07         3.52235e+08
    6.77              634336             508.679        -1.38988e+07         3.52724e+08
    6.79              637359             508.751         -1.3942e+07         3.53169e+08
    6.81              640222             508.756        -1.39825e+07         3.53573e+08
    6.83              642920             508.697        -1.40203e+07         3.53934e+08
    6.85              645453             508.578        -1.40555e+07         3.54254e+08
    6.87              647818             508.402        -1.40881e+07         3.54535e+08
    6.89              650014             508.172         -1.4118e+07         3.54778e+08
    6.91              652039             507.891        -1.41453e+07         3.54983e+08
    6.93              653892             507.563          -1.417e+07         3.55151e+08
    6.95              655573             507.191        -1.41921e+07         3.55285e+08
    6.97              657080             506.777        -1.42117e+07         3.55385e+08
    6.99              658413             506.326        -1.42286e+07         3.55453e+08
    7.01              659572             505.841        -1.42431e+07         3.55489e+08
    7.03              660558             505.324         -1.4255e+07         3.55496e+08
    7.05              661369             504.779        -1.42644e+07         3.55474e+08
    7.07              662008             504.207        -1.42714e+07         3.55426e+08
    7.09              662473             503.613         -1.4276e+07         3.55351e+08
    7.11              662767             502.999        -1.42783e+07         3.55252e+08
    7.13              662890             502.366        -1.42781e+07          3.5513e+08
    7.15              662844             501.718        -1.42757e+07         3.54987e+08
    7.17              662629             501.056        -1.42711e+07         3.54822e+08
    7.19              662248             500.383        -1.42642e+07         3.54639e+08
    7.21              661702             499.699        -1.42551e+07         3.54437e+08
    7.23              660993             499.007        -1.42439e+07         3.54218e+08
    7.25              660122             498.307        -1.42306e+07         3.53983e+08
    7.27              659093             497.601        -1.42153e+07         3.53734e+08
    7.29              657908             496.889         -1.4198e+07          3.5347e+08
    7.31              656568             496.171        -1.41787e+07         3.53194e+08
    7.33              655077             495.449        -1.41575e+07         3.52906e+08
    7.35              653437             494.722        -1.41344e+07         3.52606e+08
    7.37              651651              493.99        -1.41095e+07         3.52296e+08
    7.39              649721             493.252        -1.40829e+07         3.51977e+08
    7.41              647651             492.508        -1.40545e+07         3.51648e+08
    7.43              645443             491.756        -1.40244e+07          3.5131e+08
    7.45              643101             490.996        -1.39926e+07         3.50964e+08
    7.47              640628             490.226        -1.39592e+07          3.5061e+08
    7.49              638026             489.445        -1.39243e+07         3.50249e+08
    7.51              635300             488.651        -1.38878e+07          3.4988e+08
    7.53              632452             487.841        -1.38498e+07         3.49504e+08
    7.55              629485             487.013        -1.38103e+07         3.49121e+08
    7.57              626403             486.166        -1.37694e+07         3.48731e+08
    7.59              623210             485.297        -1.37271e+07         3.48333e+08
    7.61              619908             484.402        -1.36834e+07         3.47928e+08
    7.63              616501              483.48        -1.36384e+07         3.47516e+08
    7.65              612992             482.527        -1.35921e+07         3.47095e+08
    7.67              609384              481.54        -1.35445e+07         3.46666e+08
    7.69              605682             480.517        -1.34957e+07         3.46227e+08
    7.71              601887             479.453        -1.34456e+07          3.4578e+08
    7.73              598004             478.347        -1.33942e+07         3.45322e+08
    7.75              594036             477.194        -1.33417e+07         3.44854e+08
    7.77              589985             475.992        -1.32881e+07         3.44375e+08
    7.79              585856             474.737        -1.32332e+07         3.43883e+08
    7.81              581651             473.426        -1.31772e+07         3.43378e+08
    7.83              577373             472.057        -1.31201e+07          3.4286e+08
    7.85              573025             470.625        -1.30619e+07         3.42326e+08
    7.87              568611             469.129        -1.30026e+07         3.41778e+08
    7.89              564134             467.565        -1.29422e+07         3.41212e+08
    7.91              559596             465.931        -1.28808e+07         3.40629e+08
    7.93              555000             464.223        -1.28182e+07         3.40027e+08
    7.95              550349              462.44        -1.27547e+07         3.39405e+08
    7.97              545645              460.58          -1.269e+07         3.38762e+08
    7.99              540893             458.639        -1.26243e+07         3.38098e+08
    8.01              536093             456.616        -1.25576e+07          3.3741e+08
    8.03              531250              454.51        -1.24899e+07         3.36698e+08
    8.05              526364             452.318        -1.24211e+07          3.3596e+08
    8.07              521440              450.04        -1.23513e+07         3.35197e+08
    8.09              516478             447.674        -1.22805e+07         3.34405e+08
    8.11              511483             445.219        -1.22086e+07         3.33585e+08
    8.13              506455             442.675        -1.21358e+07         3.32735e+08
    8.15              501397             440.041        -1.20619e+07         3.31854e+08
    8.17              496312             437.317         -1.1987e+07         3.30941e+08
    8.19              491202             434.502        -1.19112e+07         3.29996e+08
    8.21              486068             431.598        -1.18343e+07         3.29016e+08
    8.23              480912             428.604        -1.17564e+07         3.28001e+08
    8.25              475738             425.521        -1.16776e+07          3.2695e+08
    8.27              470546              422.35        -1.15977e+07         3.25862e+08
    8.29              465338             419.091        -1.15169e+07         3.24737e+08
    8.31              460117             415.747         -1.1435e+07         3.23573e+08
    8.33              454884             412.319        -1.13522e+07          3.2237e+08
    8.35              449641             408.809        -1.12685e+07         3.21126e+08
    8.37              444389             405.217        -1.11837e+07         3.19842e+08
    8.39              439131             401.547         -1.1098e+07         3.18516e+08
    8.41              433867             397.801        -1.10114e+07         3.17148e+08
    8.43              428600              393.98        -1.09238e+07         3.15738e+08
    8.45              423331             390.088        -1.08352e+07         3.14284e+08
    8.47              418061             386.127        -1.07458e+07         3.12787e+08
    8.49              412792               382.1        -1.06554e+07         3.11245e+08
    8.51              407525              378.01        -1.05641e+07          3.0966e+08
    8.53              402262             373.859         -1.0472e+07          3.0803e+08
    8.55              397004             369.652        -1.03789e+07         3.06355e+08
    8.57              391752             365.391         -1.0285e+07         3.04635e+08
    8.59              386508             361.079        -1.01902e+07          3.0287e+08
    8.61              381273              356.72        -1.00946e+07          3.0106e+08
    8.63              376048             352.317        -9.99823e+06         2.99205e+08
    8.65              370834             347.873        -9.90102e+06         2.97305e+08
    8.67              365633             343.393        -9.80303e+06         2.95361e+08
    8.69              360445             338.879        -9.70427e+06         2.93371e+08
    8.71              355272             334.335        -9.60477e+06         2.91337e+08
    8.73              350115             329.764        -9.50456e+06         2.89259e+08
    8.75              344975              325.17        -9.40364e+06         2.87138e+08
    8.77              339852             320.557        -9.30206e+06         2.84973e+08
    8.79              334749             315.927        -9.19982e+06         2.82765e+08
    8.81              329666             311.285        -9.09696e+06         2.80515e+08
    8.83              324604             306.632         -8.9935e+06         2.78223e+08
    8.85              319563             301.974        -8.88946e+06          2.7589e+08
    8.87              314546             297.312        -8.78488e+06         2.73516e+08
    8.89              309553             292.651        -8.67979e+06         2.71103e+08
    8.91              304584             287.993        -8.57421e+06         2.68651e+08
    8.93              299641             283.341        -8.46816e+06         2.66161e+08
    8.95              294724             278.698        -8.36169e+06         2.63633e+08
    8.97              289835             274.067        -8.25482e+06         2.61069e+08
    8.99              284975             269.451        -8.14759e+06          2.5847e+08
    9.01              280143             264.853        -8.04002e+06         2.55836e+08
    9.03              275341             260.275        -7.93215e+06         2.53169e+08
    9.05              270570             255.719        -7.82401e+06          2.5047e+08
    9.07              265831             251.189        -7.71564e+06         2.47739e+08
    9.09              261123             246.686        -7.60706e+06         2.44979e+08
    9.11              256449             242.212        -7.49833e+06         2.42189e+08
    9.13              251808              237.77        -7.38946e+06         2.39372e+08
    9.15              247202             233.362        -7.28049e+06         2.36529e+08
    9.17              242632              228.99        -7.17147e+06          2.3366e+08
    9.19              238097             224.655        -7.06242e+06         2.30767e+08
    9.21              233598             220.359        -6.95338e+06         2.27852e+08
    9.23              229137             216.104        -6.84439e+06         2.24916e+08
    9.25              224714             211.892        -6.73548e+06         2.21959e+08
    9.27              220330             207.723         -6.6267e+06         2.18985e+08
    9.29              215984               203.6        -6.51807e+06         2.15993e+08
    9.31              211679             199.523        -6.40964e+06         2.12985e+08
    9.33              207414             195.494        -6.30144e+06         2.09964e+08
    9.35              203190             191.514        -6.19351e+06          2.0693e+08
    9.37              199007             187.583        -6.08589e+06         2.03884e+08
    9.39              194867             183.704        -5.97861e+06         2.00829e+08
    9.41              190769             179.875         -5.8717e+06         1.97766e+08
    9.43              186715             176.099        -5.76521e+06         1.94695e+08
    9.45              182704             172.376        -5.65918e+06          1.9162e+08
    9.47              178738             168.707        -5.55363e+06         1.88541e+08
    9.49              174816             165.092        -5.44861e+06          1.8546e+08
    9.51              170940             161.531        -5.34414e+06         1.82378e+08
    9.53              167109             158.026        -5.24027e+06         1.79296e+08
    9.55              163325             154.576        -5.13703e+06         1.76218e+08
    9.57              159587             151.181        -5.03445e+06         1.73143e+08
    9.59              155896             147.843        -4.93258e+06         1.70073e+08
    9.61              152252             144.561        -4.83143e+06         1.67011e+08
    9.63              148656             141.335        -4.73105e+06         1.63957e+08
    9.65              145109             138.165        -4.63147e+06         1.60912e+08
    9.67              141609             135.051        -4.53271e+06         1.57879e+08
    9.69              138159             131.994        -4.43482e+06         1.54859e+08
    9.71              134757             128.993        -4.33782e+06         1.51854e+08
    9.73              131406             126.048        -4.24174e+06         1.48863e+08
    9.75              128103             123.158        -4.14662e+06          1.4589e+08
    9.77              124851             120.325        -4.05247e+06         1.42936e+08
    9.79              121649             117.547        -3.95933e+06         1.40001e+08
    9.81              118497             114.824        -3.86723e+06         1.37087e+08
    9.83              115395             112.156        -3.77619e+06         1.34196e+08
    9.85              112345             109.543        -3.68623e+06         1.31329e+08
    9.87              109345             106.983        -3.59739e+06         1.28487e+08
    9.89              106396             104.478        -3.50968e+06          1.2567e+08
    9.91              103499             102.026        -3.42312e+06         1.22882e+08
    9.93              100652             99.6264        -3.33775e+06         1.20121e+08
    9.95             97857.3             97.2794        -3.25357e+06         1.17391e+08
    9.97             95113.5             94.9843        -3.17061e+06         1.14691e+08
    9.99             92420.9             92.7405        -3.08889e+06         1.12023e+08
   10.01             89779.7             90.5475        -3.00843e+06         1.09387e+08
   10.03             87189.8             88.4047        -2.92923e+06         1.06785e+08
   10.05             84651.1             86.3115        -2.85132e+06         1.04218e+08
   10.07             82163.5             84.2673        -2.77471e+06         1.01686e+08
   10.09             79726.9             82.2715        -2.69941e+06          9.9191e+07
   10.11             77341.2             80.3233        -2.62544e+06         9.67327e+07
   10.13             75006.3             78.4222         -2.5528e+06          9.4312e+07
   10.15               72722             76.5675         -2.4815e+06         9.19299e+07
   10.17               70488             74.7583        -2.41155e+06         8.95868e+07
   10.19             68304.2             72.9942        -2.34297e+06         8.72833e+07
   10.21             66170.3             71.2742        -2.27575e+06         8.50201e+07
   10.23               64086             69.5977        -2.20989e+06         8.27976e+07
   10.25               62051             67.9639        -2.14541e+06         8.06161e+07
   10.27               60065              66.372        -2.08231e+06         7.84762e+07
   10.29             58127.6             64.8214        -2.02058e+06         7.63781e+07
   10.31             56238.6             63.3111        -1.96022e+06         7.43222e+07
   10.33             54397.4             61.8405        -1.90124e+06         7.23085e+07
   10.35             52603.7             60.4086        -1.84363e+06         7.03375e+07
   10.37             50857.1             59.0148        -1.78739e+06         6.84092e+07
   10.39             49157.1             57.6582        -1.73252e+06         6.65237e+07
   10.41             47503.2             56.3379          -1.679e+06          6.4681e+07
   10.43             45894.9             55.0533        -1.62683e+06         6.28812e+07
   10.45             44331.8             53.8033          -1.576e+06         6.11242e+07
   10.47             42813.2             52.5873        -1.52651e+06         5.94099e+07
   10.49             41338.6             51.4044        -1.47835e+06         5.77383e+07
   10.51             39907.5             50.2538         -1.4315e+06          5.6109e+07
   10.53             38519.3             49.1346        -1.38595e+06          5.4522e+07
   10.55             37173.4              48.046        -1.34169e+06         5.29769e+07
   10.57             35869.2             46.9874        -1.29871e+06         5.14734e+07
   10.59             34605.9             45.9577        -1.25699e+06         5.00114e+07
   10.61             33383.1             44.9563        -1.21652e+06         4.85903e+07
   10.63               32200             43.9824        -1.17728e+06         4.72098e+07
   10.65             31056.1             43.0351        -1.13926e+06         4.58694e+07
   10.67             29950.5             42.1138        -1.10244e+06         4.45687e+07
   10.69             28882.6             41.2177         -1.0668e+06         4.33073e+07
   10.71             27851.8             40.3461        -1.03232e+06         4.20845e+07
   10.73             26857.4             39.4983             -998984         4.08999e+07
   10.75             25898.5             38.6736             -966777         3.97529e+07
   10.77             24974.7             37.8714             -935677         3.86428e+07
   10.79               24085              37.091             -905662         3.75691e+07
   10.81             23228.8             36.3319             -876715         3.65312e+07
   10.83             22405.4             35.5934             -848812         3.55285e+07
   10.85             21614.1             34.8751             -821935         3.45601e+07
   10.87             20854.1             34.1764             -796062         3.36256e+07
   10.89             20124.8             33.4969             -771171         3.27241e+07
   10.91             19425.3             32.8362             -747242         3.18551e+07
   10.93             18755.1             32.1938             -724252         3.10178e+07
   10.95             18113.3             31.5695             -702181         3.02114e+07
   10.97             17499.3             30.9629             -681006         2.94354e+07
   10.99             16912.3             30.3737             -660706         2.86889e+07
   11.01             16351.7             29.8017             -641259         2.79712e+07
   11.03             15816.8             29.2467             -622645         2.72817e+07
   11.05             15306.7             28.7085             -604838         2.66195e+07
   11.07             14821.1             28.1871             -587824         2.59841e+07
   11.09             14359.1             27.6823             -571578         2.53746e+07
   11.11             13920.1              27.194             -556080         2.47905e+07
   11.13             13503.3             26.7222             -541308         2.42308e+07
   11.15             13108.3             26.2669             -527242         2.36951e+07
   11.17             12734.3              25.828             -513863         2.31825e+07
   11.19             12380.7             25.4054             -501150         2.26925e+07
   11.21             12046.8             24.9993             -489083         2.22242e+07
   11.23             11732.2             24.6095             -477644         2.17772e+07
   11.25             11436.2             24.2361             -466813         2.13507e+07
   11.27             11158.2             23.8789             -456572         2.09441e+07
   11.29             10897.7             23.5378             -446903         2.05568e+07
   11.31             10654.1             23.2128             -437787         2.01881e+07
   11.33             10426.8             22.9037             -429208         1.98376e+07
   11.35             10215.4             22.6102             -421149         1.95045e+07
   11.37             10019.3             22.3322             -413593         1.91885e+07
   11.39             9838.09             22.0692             -406523         1.88888e+07
   11.41             9671.16             21.8209             -399925          1.8605e+07
   11.43             9518.08              21.587             -393782         1.83365e+07
   11.45             9378.25             21.3657             -388077         1.80829e+07
   11.47             9251.52              21.159             -382801         1.78437e+07
   11.49             9137.29             20.9648             -377938         1.76184e+07
   11.51             9035.13             20.7827             -373472         1.74065e+07
   11.53             8944.62             20.6119             -369393         1.72077e+07
   11.55             8865.46             20.4522             -365687         1.70215e+07
   11.57             8797.09             20.3019             -362339         1.68475e+07
   11.59             8739.22             20.1608             -359340         1.66853e+07
   11.61             8691.47             20.0279             -356678         1.65345e+07
   11.63              8653.5             19.9027             -354341         1.63949e+07
   11.65             8624.97             19.7841             -352318         1.62659e+07
   11.67             8605.54             19.6716             -350600         1.61474e+07
   11.69              8594.9             19.5643             -349176          1.6039e+07
   11.71             8592.73             19.4615             -348036         1.59403e+07
   11.73             8598.74             19.3625             -347171         1.58512e+07
   11.75             8612.65             19.2667             -346573         1.57713e+07
   11.77             8634.17             19.1735             -346232         1.57003e+07
   11.79             8663.04             19.0823             -346140          1.5638e+07
   11.81             8698.99             18.9927             -346289         1.55843e+07
   11.83             8741.79             18.9041             -346671         1.55387e+07
   11.85             8791.19             18.8163             -347280         1.55012e+07
   11.87             8846.96             18.7288             -348107         1.54714e+07
   11.89             8908.87             18.6414             -349146         1.54493e+07
   11.91             8976.72             18.5539             -350390         1.54345e+07
   11.93             9050.29             18.4661             -351833          1.5427e+07
   11.95             9129.39             18.3778             -353469         1.54265e+07
   11.97             9213.82             18.2891             -355291         1.54328e+07
   11.99             9303.41             18.1999             -357294         1.54459e+07
   12.01             9397.97             18.1102             -359472         1.54654e+07
   12.03             9497.33             18.0201             -361820         1.54914e+07
   12.05             9601.32             17.9297             -364333         1.55235e+07
   12.07             9709.81             17.8391             -367006         1.55618e+07
   12.09              9822.5              17.748             -369831          1.5606e+07
   12.11              9939.5             17.6575             -372808         1.56559e+07
   12.13             10060.6             17.5674             -375932         1.57116e+07
   12.15             10185.5             17.4779             -379196         1.57728e+07
   12.17             10314.2             17.3892             -382596         1.58394e+07
   12.19             10446.6             17.3016             -386129         1.59112e+07
   12.21             10582.5             17.2154             -389791         1.59882e+07
   12.23             10721.9             17.1308             -393577         1.60702e+07
   12.25             10864.5             17.0481             -397483         1.61571e+07
   12.27             11010.3             16.9676             -401505         1.62488e+07
   12.29             11159.3             16.8897             -405641         1.63451e+07
   12.31             11311.2             16.8145             -409885         1.64459e+07
   12.33             11466.1             16.7424             -414235         1.65511e+07
   12.35             11623.7             16.6737             -418686         1.66606e+07
   12.37             11784.1             16.6087             -423236         1.67742e+07
   12.39             11947.2             16.5477             -427881         1.68919e+07
   12.41             12112.8             16.4908             -432617         1.70134e+07
   12.43               12281             16.4385             -437441         1.71386e+07
   12.45             12451.5             16.3909             -442349         1.72675e+07
   12.47             12624.4             16.3484             -447340         1.73999e+07
   12.49             12799.6             16.3111             -452408         1.75357e+07
   12.51             12977.1             16.2794             -457551         1.76747e+07
   12.53             13156.7             16.2534             -462765         1.78167e+07
   12.55             13338.4             16.2333             -468048         1.79617e+07
   12.57             13522.2             16.2195             -473397         1.81096e+07
   12.59               13708              16.212             -478807         1.82601e+07
   12.61             13895.8             16.2111             -484277         1.84131e+07
   12.63             14085.4             16.2169             -489802         1.85685e+07
   12.65               14277             16.2296             -495380         1.87261e+07
   12.67             14470.4             16.2495             -501009         1.88858e+07
   12.69             14665.6             16.2765             -506683         1.90474e+07
   12.71             14862.5             16.3109             -512402         1.92108e+07
   12.73             15061.2             16.3527             -518162         1.93759e+07
   12.75             15261.5             16.4021             -523959         1.95424e+07
   12.77             15463.6             16.4592             -529792         1.97102e+07
   12.79             15667.3             16.5241             -535656         1.98792e+07
   12.81             15872.5             16.5968             -541550         2.00492e+07
   12.83             16079.4             16.6774             -547470         2.02201e+07
   12.85             16287.8             16.7659             -553410         2.03915e+07
   12.87             16497.7             16.8622             -559374         2.05636e+07
   12.89             16709.3             16.9667             -565357         2.07361e+07
   12.91             16922.4             17.0791             -571354         2.09087e+07
   12.93             17136.9             17.1994             -577365         2.10815e+07
   12.95               17353             17.3277             -583385         2.12541e+07
   12.97             17570.5             17.4638             -589413         2.14266e+07
   12.99             17789.6             17.6078             -595446         2.15986e+07
   13.01             18010.1             17.7595             -601481           2.177e+07
   13.03               18232             17.9188             -607517         2.19408e+07
   13.05             18455.5             18.0857             -613551         2.21107e+07
   13.07             18680.4             18.2599             -619581         2.22797e+07
   13.09             18906.8             18.4415             -625604         2.24475e+07
   13.11             19134.7             18.6301             -631618          2.2614e+07
   13.13               19364             18.8257             -637623         2.27792e+07
   13.15             19594.8              19.028             -643615         2.29428e+07
   13.17             19827.2             19.2368             -649592         2.31048e+07
   13.19             20061.1             19.4519             -655555         2.32649e+07
   13.21             20296.4             19.6731             -661500         2.34232e+07
   13.23             20533.4                19.9             -667426         2.35795e+07
   13.25             20771.9             20.1325             -673332         2.37336e+07
   13.27               21012             20.3702             -679217         2.38855e+07
   13.29             21253.7             20.6128             -685079         2.40351e+07
   13.31             21497.1               20.86             -690919         2.41823e+07
   13.33             21742.1             21.1114             -696734          2.4327e+07
   13.35             21988.9             21.3668             -702525         2.44692e+07
   13.37             22237.3             21.6257             -708290         2.46087e+07
   13.39             22487.6             21.8878             -714030         2.47455e+07
   13.41             22739.7             22.1527             -719744         2.48795e+07
   13.43             22993.6             22.4199             -725432         2.50108e+07
   13.45             23249.5             22.6892             -731095         2.51392e+07
   13.47             23507.3             22.9601             -736733         2.52647e+07
   13.49             23767.1             23.2321             -742345         2.53873e+07
   13.51               24029             23.5049             -747934         2.55071e+07
   13.53             24293.1              23.778             -753499         2.56239e+07
   13.55             24559.3              24.051             -759043         2.57378e+07
   13.57             24827.8             24.3234             -764565         2.58488e+07
   13.59             25098.7             24.5949             -770068         2.59569e+07
   13.61               25372             24.8651             -775553         2.60621e+07
   13.63             25647.7             25.1334             -781023         2.61646e+07
   13.65             25926.1             25.3995             -786478         2.62642e+07
   13.67             26207.1             25.6629             -791921         2.63612e+07
   13.69             26490.9             25.9234             -797356         2.64555e+07
   13.71             26777.6             26.1803             -802783         2.65473e+07
   13.73             27067.2             26.4335             -808207         2.66366e+07
   13.75             27359.9             26.6825             -813630         2.67234e+07
   13.77             27655.8              26.927             -819055          2.6808e+07
   13.79             27954.9             27.1666             -824486         2.68904e+07
   13.81             28257.4              27.401             -829924         2.69707e+07
   13.83             28563.5               27.63             -835377         2.70491e+07
   13.85             28873.3             27.8532             -840847         2.71257e+07
   13.87             29186.8             28.0703             -846339         2.72007e+07
   13.89             29504.3             28.2812             -851855         2.72741e+07
   13.91             29825.8             28.4857             -857401         2.73462e+07
   13.93             30151.4             28.6834             -862982         2.74171e+07
   13.95             30481.5             28.8744             -868601          2.7487e+07
   13.97             30815.9             29.0584             -874264         2.75561e+07
   13.99               31155             29.2354             -879975         2.76245e+07
   14.01             31498.9             29.4052             -885740         2.76924e+07
   14.03             31847.7             29.5679             -891564         2.77601e+07
   14.05             32201.5             29.7234             -897452         2.78277e+07
   14.07             32560.6             29.8717             -903410         2.78954e+07
   14.09               32925             30.0129             -909442         2.79634e+07
   14.11               33295             30.1471             -915554         2.80321e+07
   14.13             33670.6             30.2743             -921752         2.81014e+07
   14.15             34052.1             30.3947             -928040         2.81717e+07
   14.17             34439.5             30.5084             -934425         2.82433e+07
   14.19             34833.1             30.6157             -940911         2.83162e+07
   14.21             35232.9             30.7167             -947505         2.83907e+07
   14.23             35639.1             30.8118             -954211         2.84671e+07
   14.25             36051.9             30.9012             -961034         2.85456e+07
   14.27             36471.4             30.9852             -967980         2.86263e+07
   14.29             36897.7             31.0641             -975054         2.87095e+07
   14.31             37330.9             31.1384             -982260         2.87953e+07
   14.33             37771.1             31.2083             -989604         2.88841e+07
   14.35             38218.5             31.2743             -997089          2.8976e+07
   14.37             38673.1             31.3369        -1.00472e+06         2.90711e+07
   14.39               39135             31.3964         -1.0125e+06         2.91698e+07
   14.41             39604.4             31.4533        -1.02044e+06         2.92721e+07
   14.43             40081.2             31.5081        -1.02853e+06         2.93783e+07
   14.45             40565.5             31.5613        -1.03679e+06         2.94885e+07
   14.47             41057.4             31.6134        -1.04521e+06         2.96029e+07
   14.49             41556.9             31.6649        -1.05379e+06         2.97216e+07
   14.51               42064             31.7163        -1.06255e+06         2.98449e+07
   14.53             42578.7             31.7682        -1.07148e+06         2.99728e+07
   14.55               43101             31.8211        -1.08058e+06         3.01055e+07
   14.57             43630.8             31.8755        -1.08985e+06          3.0243e+07
   14.59             44168.1             31.9321         -1.0993e+06         3.03856e+07
   14.61             44712.8             31.9912        -1.10893e+06         3.05332e+07
   14.63             45264.9             32.0535        -1.11873e+06          3.0686e+07
   14.65             45824.2             32.1194         -1.1287e+06         3.08441e+07
   14.67             46390.5             32.1896        -1.13886e+06         3.10075e+07
   14.69             46963.8             32.2646        -1.14918e+06         3.11763e+07
   14.71             47543.9             32.3448        -1.15967e+06         3.13504e+07
   14.73             48130.6             32.4307        -1.17034e+06           3.153e+07
   14.75             48723.6             32.5229        -1.18116e+06          3.1715e+07
   14.77             49322.7             32.6218        -1.19216e+06         3.19054e+07
   14.79             49927.7             32.7278         -1.2033e+06         3.21012e+07
   14.81             50538.2             32.8415        -1.21461e+06         3.23023e+07
   14.83               51154             32.9632        -1.22606e+06         3.25088e+07
   14.85             51774.6             33.0932        -1.23765e+06         3.27205e+07
   14.87             52399.9             33.2321        -1.24938e+06         3.29374e+07
   14.89             53029.3             33.3802        -1.26124e+06         3.31594e+07
   14.91             53662.5             33.5377        -1.27323e+06         3.33863e+07
   14.93             54299.1              33.705        -1.28532e+06         3.36181e+07
   14.95             54938.5             33.8824        -1.29753e+06         3.38546e+07
   14.97             55580.3             34.0701        -1.30983e+06         3.40957e+07
   14.99             56224.1             34.2684        -1.32222e+06         3.43411e+07
   15.01             56869.2             34.4774        -1.33469e+06         3.45908e+07
   15.03             57515.2             34.6974        -1.34723e+06         3.48446e+07
   15.05             58161.5             34.9285        -1.35983e+06         3.51021e+07
   15.07             58807.5             35.1709        -1.37248e+06         3.53633e+07
   15.09             59452.6             35.4245        -1.38516e+06         3.56279e+07
   15.11             60096.2             35.6895        -1.39786e+06         3.58957e+07
   15.13             60737.6             35.9659        -1.41057e+06         3.61663e+07
   15.15             61376.3             36.2537        -1.42328e+06         3.64397e+07
   15.17             62011.4              36.553        -1.43598e+06         3.67154e+07
   15.19             62642.5             36.8636        -1.44865e+06         3.69932e+07
   15.21             63268.7             37.1855        -1.46128e+06         3.72729e+07
   15.23             63889.3             37.5185        -1.47385e+06         3.75542e+07
   15.25             64503.7             37.8627        -1.48635e+06         3.78366e+07
   15.27             65111.2             38.2178        -1.49877e+06         3.81201e+07
   15.29             65710.9             38.5836        -1.51109e+06         3.84042e+07
   15.31             66302.3             38.9599         -1.5233e+06         3.86886e+07
   15.33             66884.5             39.3466        -1.53538e+06          3.8973e+07
   15.35             67456.8             39.7433        -1.54732e+06         3.92571e+07
   15.37             68018.5             40.1499         -1.5591e+06         3.95407e+07
   15.39             68568.9             40.5659        -1.57071e+06         3.98233e+07
   15.41             69107.3             40.9912        -1.58214e+06         4.01046e+07
   15.43             69632.9             41.4253        -1.59337e+06         4.03844e+07
   15.45               70145              41.868        -1.60438e+06         4.06623e+07
   15.47             70642.9             42.3188        -1.61517e+06          4.0938e+07
   15.49               71126             42.7773        -1.62572e+06         4.12112e+07
   15.51             71593.6             43.2433        -1.63601e+06         4.14816e+07
   15.53             72045.1             43.7162        -1.64604e+06         4.17489e+07
   15.55             72479.7             44.1957        -1.65578e+06         4.20129e+07
   15.57             72896.9             44.6812        -1.66524e+06         4.22731e+07
   15.59             73296.1             45.1724        -1.67439e+06         4.25294e+07
   15.61             73676.8             45.6688        -1.68323e+06         4.27815e+07
   15.63             74038.3             46.1699        -1.69174e+06         4.30291e+07
   15.65             74380.3             46.6753        -1.69991e+06          4.3272e+07
   15.67             74702.1             47.1844        -1.70774e+06         4.35099e+07
   15.69             75003.3             47.6967        -1.71521e+06         4.37426e+07
   15.71             75283.6             48.2119        -1.72232e+06           4.397e+07
   15.73             75542.5             48.7293        -1.72905e+06         4.41917e+07
   15.75             75779.6             49.2485        -1.73541e+06         4.44077e+07
   15.77             75994.6             49.7689        -1.74138e+06         4.46177e+07
   15.79             76187.3             50.2902        -1.74696e+06         4.48216e+07
   15.81             76357.4             50.8116        -1.75214e+06         4.50193e+07
   15.83             76504.6             51.3329        -1.75692e+06         4.52105e+07
   15.85             76628.8             51.8534         -1.7613e+06         4.53953e+07
   15.87             76729.9             52.3726        -1.76526e+06         4.55734e+07
   15.89             76807.8             52.8901        -1.76882e+06         4.57449e+07
   15.91             76862.3             53.4054        -1.77196e+06         4.59096e+07
   15.93             76893.5              53.918        -1.77469e+06         4.60675e+07
   15.95             76901.4             54.4275        -1.77701e+06         4.62185e+07
   15.97             76886.1             54.9332        -1.77891e+06         4.63627e+07
   15.99             76847.6             55.4349        -1.78041e+06         4.64999e+07
   16.01             76786.1              55.932        -1.78149e+06         4.66303e+07
   16.03             76701.8             56.4241        -1.78217e+06         4.67539e+07
   16.05             76594.9             56.9109        -1.78244e+06         4.68706e+07
   16.07             76465.6             57.3917        -1.78232e+06         4.69805e+07
   16.09             76314.2             57.8664         -1.7818e+06         4.70838e+07
   16.11             76141.1             58.3344         -1.7809e+06         4.71804e+07
   16.13             75946.7             58.7953        -1.77961e+06         4.72704e+07
   16.15             75731.2              59.249        -1.77795e+06          4.7354e+07
   16.17             75495.2             59.6949        -1.77592e+06         4.74313e+07
   16.19             75239.2             60.1327        -1.77354e+06         4.75023e+07
   16.21             74963.5             60.5622         -1.7708e+06         4.75673e+07
   16.23             74668.7             60.9831        -1.76772e+06         4.76263e+07
   16.25             74355.5              61.395        -1.76431e+06         4.76795e+07
   16.27             74024.3             61.7978        -1.76057e+06         4.77271e+07
   16.29             73675.7             62.1911        -1.75652e+06         4.77692e+07
   16.31             73310.4             62.5749        -1.75217e+06          4.7806e+07
   16.33             72929.1             62.9488        -1.74753e+06         4.78376e+07
   16.35             72532.3             63.3127        -1.74261e+06         4.78644e+07
   16.37             72120.8             63.6666        -1.73742e+06         4.78863e+07
   16.39             71695.2             64.0102        -1.73197e+06         4.79037e+07
   16.41             71256.3             64.3435        -1.72628e+06         4.79167e+07
   16.43             70804.9             64.6665        -1.72035e+06         4.79255e+07
   16.45             70341.5             64.9791         -1.7142e+06         4.79303e+07
   16.47               69867             65.2813        -1.70785e+06         4.79313e+07
   16.49             69382.1             65.5732        -1.70129e+06         4.79286e+07
   16.51             68887.6             65.8548        -1.69455e+06         4.79225e+07
   16.53             68384.2             66.1264        -1.68764e+06         4.79132e+07
   16.55             67872.7             66.3879        -1.68056e+06         4.79007e+07
   16.57             67353.8             66.6397        -1.67334e+06         4.78854e+07
   16.59             66828.3             66.8819        -1.66598e+06         4.78673e+07
   16.61               66297             67.1149        -1.65848e+06         4.78466e+07
   16.63             65760.5              67.339        -1.65088e+06         4.78235e+07
   16.65             65219.6             67.5545        -1.64317e+06         4.77982e+07
   16.67             64675.2             67.7619        -1.63536e+06         4.77707e+07
   16.69             64127.7             67.9616        -1.62747e+06         4.77412e+07
   16.71             63578.1             68.1542        -1.61951e+06         4.77099e+07
   16.73             63026.9             68.3403        -1.61149e+06         4.76768e+07
   16.75             62474.9             68.5205         -1.6034e+06         4.76421e+07
   16.77             61922.7             68.6955        -1.59528e+06         4.76058e+07
   16.79             61370.9              68.866        -1.58711e+06         4.75681e+07
   16.81             60820.3             69.0329        -1.57892e+06          4.7529e+07
   16.83             60271.5             69.1971         -1.5707e+06         4.74885e+07
   16.85             59724.9             69.3594        -1.56248e+06         4.74468e+07
   16.87             59181.3             69.5208        -1.55424e+06         4.74039e+07
   16.89             58641.1             69.6825          -1.546e+06         4.73598e+07
   16.91               58105             69.8455        -1.53777e+06         4.73145e+07
   16.93             57573.4              70.011        -1.52955e+06          4.7268e+07
   16.95             57046.8             70.1802        -1.52135e+06         4.72204e+07
   16.97             56525.8             70.3544        -1.51317e+06         4.71716e+07
   16.99             56010.7             70.5349        -1.50501e+06         4.71216e+07
   17.01             55502.1             70.7231        -1.49688e+06         4.70703e+07
   17.03             55000.3             70.9204        -1.48878e+06         4.70178e+07
   17.05             54505.8             71.1283        -1.48072e+06          4.6964e+07
   17.07             54018.8             71.3484         -1.4727e+06         4.69088e+07
   17.09             53539.9              71.582        -1.46472e+06         4.68521e+07
   17.11             53069.2             71.8309        -1.45677e+06         4.67938e+07
   17.13             52607.1             72.0966        -1.44888e+06          4.6734e+07
   17.15               52154             72.3806        -1.44102e+06         4.66724e+07
   17.17               51710             72.6846        -1.43321e+06         4.66089e+07
   17.19             51275.5             73.0102        -1.42545e+06         4.65436e+07
   17.21             50850.6             73.3589        -1.41773e+06         4.64761e+07
   17.23             50435.7             73.7324        -1.41006e+06         4.64065e+07
   17.25             50030.8             74.1322        -1.40243e+06         4.63346e+07
   17.27             49636.2             74.5597        -1.39484e+06         4.62602e+07
   17.29             49252.1             75.0164         -1.3873e+06         4.61833e+07
   17.31             48878.5             75.5038        -1.37981e+06         4.61036e+07
   17.33             48515.7             76.0231        -1.37235e+06         4.60211e+07
   17.35             48163.7             76.5755        -1.36493e+06         4.59355e+07
   17.37             47822.6             77.1623        -1.35755e+06         4.58469e+07
   17.39             47492.6             77.7844        -1.35021e+06         4.57549e+07
   17.41             47173.8             78.4428         -1.3429e+06         4.56595e+07
   17.43             46866.1             79.1383        -1.33562e+06         4.55605e+07
   17.45             46569.7             79.8716        -1.32838e+06         4.54577e+07
   17.47             46284.5             80.6432        -1.32116e+06         4.53511e+07
   17.49             46010.7             81.4534        -1.31397e+06         4.52405e+07
   17.51             45748.2             82.3025         -1.3068e+06         4.51257e+07
   17.53               45497             83.1905        -1.29966e+06         4.50067e+07
   17.55             45257.2             84.1174        -1.29254e+06         4.48832e+07
   17.57             45028.7             85.0826        -1.28543e+06         4.47552e+07
   17.59             44811.6             86.0858        -1.27834e+06         4.46225e+07
   17.61             44605.7             87.1263        -1.27127e+06         4.44851e+07
   17.63             44411.1             88.2031        -1.26421e+06         4.43427e+07
   17.65             44227.7             89.3152        -1.25716e+06         4.41954e+07
   17.67             44055.5             90.4612        -1.25012e+06          4.4043e+07
   17.69             43894.4             91.6396        -1.24309e+06         4.38855e+07
   17.71             43744.3             92.8488        -1.23606e+06         4.37226e+07
   17.73             43605.2             94.0869        -1.22904e+06         4.35545e+07
   17.75             43476.9             95.3517        -1.22203e+06         4.33809e+07
   17.77             43359.5              96.641        -1.21501e+06         4.32019e+07
   17.79             43252.7             97.9523          -1.208e+06         4.30174e+07
   17.81             43156.6             99.2831        -1.20099e+06         4.28273e+07
   17.83               43071             100.631        -1.19398e+06         4.26317e+07
   17.85             42995.7             101.992        -1.18697e+06         4.24304e+07
   17.87             42930.6             103.363        -1.17996e+06         4.22236e+07
   17.89             42875.7             104.743        -1.17295e+06         4.20111e+07
   17.91             42830.7             106.126        -1.16594e+06          4.1793e+07
   17.93             42795.6              107.51        -1.15893e+06         4.15693e+07
   17.95             42770.1             108.892        -1.15192e+06         4.13399e+07
   17.97             42754.1             110.267         -1.1449e+06         4.11051e+07
   17.99             42747.4             111.632        -1.13789e+06         4.08646e+07
   18.01             42749.9             112.984        -1.13088e+06         4.06187e+07
   18.03             42761.3             114.319        -1.12386e+06         4.03674e+07
   18.05             42781.4             115.633        -1.11685e+06         4.01107e+07
   18.07             42810.1             116.922        -1.10984e+06         3.98487e+07
   18.09             42847.1             118.184        -1.10283e+06         3.95815e+07
   18.11             42892.1             119.414        -1.09583e+06         3.93091e+07
   18.13               42945             120.609        -1.08883e+06         3.90317e+07
   18.15             43005.5             121.766        -1.08183e+06         3.87494e+07
   18.17             43073.2             122.881        -1.07484e+06         3.84622e+07
   18.19             43148.1             123.952        -1.06786e+06         3.81703e+07
   18.21             43229.7             124.975        -1.06088e+06         3.78738e+07
   18.23             43317.7             125.947        -1.05391e+06         3.75728e+07
   18.25             43411.9             126.866        -1.04695e+06         3.72674e+07
   18.27             43511.9             127.729           -1.04e+06         3.69578e+07
   18.29             43617.5             128.535        -1.03306e+06         3.66442e+07
   18.31             43728.2             129.279        -1.02614e+06         3.63265e+07
   18.33             43843.7             129.962        -1.01922e+06         3.60051e+07
   18.35             43963.7              130.58        -1.01232e+06         3.56801e+07
   18.37             44087.8             131.132        -1.00543e+06         3.53516e+07
   18.39             44215.5             131.618             -998556         3.50197e+07
   18.41             44346.6             132.035             -991696         3.46847e+07
   18.43             44480.5             132.382             -984851         3.43466e+07
   18.45             44616.9              132.66             -978020         3.40057e+07
   18.47             44755.4             132.867             -971205         3.36622e+07
   18.49             44895.5             133.002             -964405         3.33161e+07
   18.51             45036.8             133.067             -957620         3.29677e+07
   18.53             45178.9              133.06             -950851          3.2617e+07
   18.55             45321.2             132.982             -944096         3.22644e+07
   18.57             45463.3             132.834             -937356           3.191e+07
   18.59             45604.7             132.615             -930630         3.15538e+07
   18.61               45745             132.328             -923917         3.11962e+07
   18.63             45883.7             131.971             -917216         3.08372e+07
   18.65             46020.2             131.548             -910528          3.0477e+07
   18.67             46154.2             131.058             -903850         3.01158e+07
   18.69               46285             130.503             -897182         2.97537e+07
   18.71             46412.3             129.885             -890522         2.93909e+07
   18.73             46535.5             129.205             -883870         2.90276e+07
   18.75               46654             128.464             -877223         2.86639e+07
   18.77             46767.6             127.665             -870581            2.83e+07
   18.79             46875.5              126.81             -863942         2.79359e+07
   18.81             46977.4             125.899             -857303         2.75719e+07
   18.83             47072.7             124.936             -850664         2.72081e+07
   18.85               47161             123.922             -844022         2.68446e+07
   18.87             47241.7              122.86             -837376         2.64815e+07
   18.89             47314.5              121.75             -830723         2.61191e+07
   18.91             47378.8             120.597             -824062         2.57574e+07
   18.93             47434.3             119.402             -817390         2.53965e+07
   18.95             47480.4             118.166             -810706         2.50366e+07
   18.97             47516.7             116.893             -804007         2.46777e+07
   18.99             47542.8             115.584             -797291         2.43201e+07
   19.01             47558.4             114.242             -790556         2.39637e+07
   19.03             47562.9             112.869             -783800         2.36087e+07
   19.05             47556.1             111.467             -777020         2.32552e+07
   19.07             47537.5             110.038             -770215         2.29034e+07
   19.09             47506.9             108.584             -763383         2.25532e+07
   19.11             47463.8             107.108             -756521         2.22047e+07
   19.13             47408.1             105.612             -749628         2.18582e+07
   19.15             47339.3             104.097             -742702         2.15135e+07
   19.17             47257.3             102.566             -735740         2.11709e+07
   19.19             47161.7              101.02             -728742         2.08304e+07
   19.21             47052.4             99.4617             -721705          2.0492e+07
   19.23             46929.2             97.8928             -714627         2.01558e+07
   19.25             46791.8             96.3148             -707509         1.98219e+07
   19.27             46640.1             94.7297             -700347         1.94904e+07
   19.29               46474             93.1391             -693141         1.91612e+07
   19.31             46293.4             91.5447             -685890         1.88345e+07
   19.33             46098.1             89.9479             -678592         1.85103e+07
   19.35             45888.2             88.3503             -671248         1.81886e+07
   19.37             45663.5             86.7534             -663856         1.78695e+07
   19.39             45424.1             85.1585             -656415          1.7553e+07
   19.41               45170             83.5671             -648927         1.72392e+07
   19.43             44901.3             81.9802             -641389         1.69281e+07
   19.45             44617.9             80.3992             -633803         1.66197e+07
   19.47               44320             78.8253             -626169          1.6314e+07
   19.49             44007.7             77.2594             -618486         1.60112e+07
   19.51             43681.1             75.7027             -610756         1.57112e+07
   19.53             43340.5              74.156             -602979          1.5414e+07
   19.55             42985.9             72.6205             -595156         1.51197e+07
   19.57             42617.7             71.0968             -587288         1.48282e+07
   19.59               42236             69.5859             -579376         1.45397e+07
   19.61             41841.1             68.0885             -571422         1.42541e+07
   19.63             41433.3             66.6052             -563427         1.39714e+07
   19.65             41012.9             65.1368             -555393         1.36917e+07
   19.67             40580.2             63.6839             -547322         1.34149e+07
   19.69             40135.5             62.2471             -539217         1.31411e+07
   19.71             39679.3             60.8268             -531078         1.28703e+07
   19.73             39211.9             59.4236             -522909         1.26026e+07
   19.75             38733.7             58.0378             -514713         1.23378e+07
   19.77             38245.1             56.6699             -506491         1.20761e+07
   19.79             37746.6             55.3203             -498248         1.18174e+07
   19.81             37238.5             53.9892             -489985         1.15617e+07
   19.83             36721.5             52.6769             -481706         1.13091e+07
   19.85             36195.8             51.3838             -473414         1.10596e+07
   19.87               35662             50.1099             -465113         1.08131e+07
   19.89             35120.7             48.8555             -456806         1.05697e+07
   19.91             34572.3             47.6208             -448496         1.03294e+07
   19.93             34017.2             46.4058             -440187         1.00922e+07
   19.95             33456.2             45.2107             -431884         9.85808e+06
   19.97             32889.5             44.0356             -423588         9.62704e+06
   19.99             32317.9             42.8804             -415306         9.39911e+06
   20.01             31741.8             41.7453             -407039         9.17429e+06
